Date and Time:                Thu Oct 27 15:19:38.000 2022
Software Version:             4.31.30023.0
Temperature (C):              -40
Model:                        DU940P_BU2
Data Type:                    Counts
Acquisition Mode:             Single Scan
Trigger Mode:                 Internal
Exposure Time (secs):         0.25
Readout Mode:                 Full Vertical Binning
Horizontal binning:           1
Extended Dynamic Range:       off
Horizontally flipped:         false
Vertical Shift Speed (usecs): 14.51
Pixel Readout Rate (MHz):     3
Baseline Clamp:               ON
Clock Amplitude:              Normal
Output Amplifier:             High Capacity
Serial Number:                23634
Pre-Amplifier Gain:           1.000000
Spurious Noise Filter Mode:   No Filter
Photon counted:               false
Data Averaging Filter Mode:   No Filter
SR500i:
Serial Number:                
Wavelength (nm):              283.2
Grating Groove Density (l/mm):1199.47
Grating Blaze:                500
Output Flipper Port:          Direct
Accessory Output Port 1:      Off
Accessory Output Port 2:      Off
Accessory Output Port 3:      Off
Accessory Input Port:         On



261.5708	5731
261.59204	5462
261.61328	5466
261.63452	5421
261.65576	5439
261.677	5489
261.69827	5482
261.71951	5482
261.74075	5491
261.76199	5453
261.78323	5475
261.80447	5413
261.82571	5381
261.84695	5408
261.86819	5405
261.88943	5466
261.91068	5464
261.93192	5450
261.95316	5489
261.9744	5457
261.99564	5416
262.01688	5488
262.03812	5476
262.05936	5446
262.0806	5495
262.10184	5442
262.12308	5494
262.14432	5487
262.16556	5508
262.1868	5520
262.20801	5498
262.22925	5555
262.25049	5589
262.27173	5558
262.29297	5558
262.31421	5604
262.33545	5580
262.35669	5608
262.37793	5625
262.39917	5631
262.42038	5606
262.44162	5590
262.46286	5557
262.4841	5529
262.50534	5586
262.52658	5657
262.54782	5629
262.56903	5673
262.59027	5648
262.61151	5645
262.63275	5648
262.65399	5640
262.6752	5650
262.69644	5705
262.71768	5703
262.73892	5722
262.76016	5706
262.78137	5714
262.80261	5726
262.82385	5755
262.84509	5743
262.8663	5740
262.88754	5764
262.90878	5741
262.93002	5759
262.95123	5727
262.97247	5749
262.99371	5752
263.01492	5684
263.03616	5634
263.0574	5659
263.07861	5667
263.09985	5642
263.12109	5678
263.1423	5664
263.16354	5649
263.18478	5683
263.20599	5657
263.22723	5682
263.24847	5656
263.26968	5693
263.29092	5711
263.31216	5717
263.33337	5777
263.35461	5776
263.37582	5813
263.39706	5798
263.4183	5799
263.43951	5755
263.46075	5802
263.48196	5786
263.5032	5812
263.52441	5768
263.54565	5770
263.56686	5735
263.5881	5786
263.60934	5775
263.63055	5800
263.65179	5843
263.673	5855
263.69424	5871
263.71545	5848
263.73669	5851
263.7579	5838
263.77914	5910
263.80035	5901
263.82159	5926
263.8428	5984
263.86401	5907
263.88525	5973
263.90646	5945
263.9277	5920
263.94891	5908
263.97015	5940
263.99136	5984
264.0126	5985
264.03381	5958
264.05502	5954
264.07626	6006
264.09747	5996
264.11868	6015
264.13992	5973
264.16113	6023
264.18237	5963
264.20358	5971
264.22479	5952
264.24603	5945
264.26724	5941
264.28845	5970
264.30969	6012
264.3309	5991
264.35211	6048
264.37335	6023
264.39456	6031
264.41577	6008
264.43701	6003
264.45822	6021
264.47943	6002
264.50064	6003
264.52188	5988
264.54309	5997
264.5643	5956
264.58551	6014
264.60675	6018
264.62796	6018
264.64917	6049
264.67038	6065
264.69162	6070
264.71283	6095
264.73404	6095
264.75525	6136
264.77646	6190
264.7977	6217
264.81891	6221
264.84012	6237
264.86133	6237
264.88254	6207
264.90375	6166
264.92499	6192
264.9462	6186
264.96741	6219
264.98862	6184
265.00983	6236
265.03104	6218
265.05225	6248
265.07349	6283
265.0947	6293
265.11591	6381
265.13712	6334
265.15833	6346
265.17953	6335
265.20074	6317
265.22195	6346
265.24316	6420
265.26437	6447
265.28558	6516
265.30679	6525
265.328	6543
265.34921	6530
265.37042	6496
265.39163	6440
265.41284	6531
265.43405	6518
265.45526	6511
265.47647	6491
265.49768	6518
265.51889	6504
265.5401	6505
265.56131	6487
265.58252	6445
265.60373	6402
265.62494	6426
265.64615	6473
265.66736	6505
265.68857	6502
265.70978	6511
265.73099	6574
265.7522	6608
265.77341	6647
265.79462	6635
265.8158	6667
265.83701	6664
265.85822	6665
265.87943	6677
265.90063	6665
265.92184	6664
265.94305	6693
265.96426	6648
265.98544	6630
266.00665	6670
266.02786	6665
266.04907	6645
266.07028	6703
266.09149	6709
266.11267	6734
266.13388	6670
266.15509	6688
266.1763	6706
266.19751	6712
266.21869	6733
266.2399	6780
266.26111	6800
266.28232	6822
266.3035	6807
266.32471	6730
266.34592	6747
266.36713	6758
266.38831	6780
266.40952	6813
266.43073	6770
266.4519	6741
266.47311	6749
266.49432	6765
266.5155	6848
266.53671	6902
266.55792	6919
266.57913	6883
266.60031	6911
266.62152	6946
266.6427	6886
266.66391	6973
266.68512	6995
266.7063	7052
266.72751	7088
266.74872	7076
266.7699	7060
266.79111	7069
266.81229	7061
266.8335	7154
266.85471	7146
266.87589	7160
266.89709	7108
266.91827	7099
266.93948	7106
266.96066	7121
266.98187	7148
267.00308	7121
267.02426	7002
267.04547	7020
267.06665	7035
267.08786	7085
267.10904	7138
267.13025	7209
267.15143	7105
267.17264	7148
267.19382	7252
267.21503	7259
267.23621	7197
267.25742	7209
267.27859	7207
267.29977	7212
267.32098	7199
267.34216	7202
267.36337	7244
267.38455	7233
267.40576	7199
267.42694	7170
267.44812	7213
267.46933	7243
267.49051	7157
267.51172	7157
267.5329	7065
267.55408	7108
267.57529	7093
267.59647	7111
267.61768	7105
267.63885	7163
267.66003	7140
267.68124	7144
267.70242	7172
267.7236	7217
267.74481	7185
267.76599	7209
267.78717	7171
267.80835	7164
267.82956	7205
267.85074	7180
267.87192	7226
267.89313	7217
267.91431	7240
267.93549	7244
267.95667	7214
267.97787	7298
267.99905	7374
268.02023	7341
268.04141	7328
268.06262	7235
268.0838	7308
268.10498	7267
268.12616	7320
268.14734	7293
268.16855	7338
268.18973	7334
268.21091	7353
268.23209	7321
268.25327	7374
268.27448	7376
268.29565	7389
268.31683	7387
268.33801	7410
268.35919	7386
268.38037	7395
268.40155	7413
268.42273	7458
268.44394	7458
268.46512	7466
268.4863	7502
268.50748	7476
268.52866	7409
268.54984	7458
268.57101	7470
268.59219	7474
268.61337	7531
268.63455	7506
268.65573	7577
268.67691	7555
268.69809	7608
268.71927	7636
268.74045	7653
268.76163	7692
268.78281	7642
268.80399	7631
268.82516	7619
268.84634	7630
268.86752	7643
268.8887	7654
268.90988	7736
268.93106	7724
268.95224	7640
268.97342	7651
268.9946	7671
269.01578	7672
269.03696	7689
269.05814	7753
269.07932	7794
269.10049	7882
269.12167	7832
269.14285	7850
269.164	7862
269.18518	7894
269.20636	7912
269.22754	7910
269.24872	7946
269.2699	7951
269.29108	7872
269.31226	7859
269.3334	7835
269.35458	7812
269.37576	7864
269.39694	7849
269.41812	7991
269.43927	7993
269.46045	7980
269.48163	7912
269.50281	7879
269.52399	7921
269.54514	7936
269.56631	7942
269.58749	8005
269.60867	8056
269.62982	8013
269.651	8001
269.67218	7975
269.69336	7975
269.71451	7974
269.73569	8027
269.75687	8075
269.77805	8037
269.79919	7986
269.82037	7969
269.84155	8002
269.8627	7953
269.88388	7939
269.90506	7969
269.92621	7966
269.94739	7912
269.96857	7940
269.98972	7973
270.01089	7968
270.03204	7987
270.05322	7975
270.0744	8041
270.09555	8122
270.11673	8058
270.13788	8085
270.15906	8088
270.18024	8128
270.20139	8002
270.22256	8010
270.24371	8032
270.26489	8027
270.28604	8000
270.30722	7980
270.32837	8018
270.34955	8075
270.37073	8059
270.39188	8080
270.41306	8056
270.4342	8029
270.45538	8030
270.47653	8040
270.49771	8138
270.51886	8241
270.54001	8286
270.56119	8284
270.58234	8246
270.60352	8267
270.62466	8226
270.64584	8206
270.66699	8201
270.68817	8212
270.70932	8217
270.73047	8242
270.75165	8274
270.7728	8189
270.79398	8220
270.81512	8242
270.83627	8294
270.85745	8338
270.8786	8386
270.89975	8372
270.92093	8373
270.94208	8335
270.96323	8357
270.98441	8378
271.00555	8458
271.0267	8542
271.04788	8584
271.06903	8582
271.09018	8622
271.11136	8599
271.13251	8598
271.15366	8552
271.1748	8572
271.19598	8605
271.21713	8548
271.23828	8544
271.25943	8514
271.28061	8538
271.30176	8511
271.32291	8527
271.34406	8469
271.36523	8477
271.38638	8469
271.40753	8484
271.42868	8576
271.44983	8476
271.47101	8516
271.49216	8543
271.51331	8657
271.53445	8718
271.5556	8683
271.57675	8672
271.5979	8714
271.61908	8700
271.64023	8706
271.66138	8670
271.68253	8693
271.70367	8703
271.72482	8668
271.74597	8660
271.76712	8685
271.78827	8686
271.80942	8706
271.8306	8711
271.85175	8712
271.87289	8737
271.89404	8655
271.91519	8652
271.93634	8563
271.95749	8690
271.97864	8668
271.99979	8734
272.02094	8725
272.04208	8789
272.06323	8735
272.08438	8703
272.10553	8733
272.12668	8728
272.14783	8785
272.16898	8769
272.19012	8774
272.21127	8788
272.23239	8725
272.25354	8743
272.27469	8795
272.29584	8834
272.31699	8873
272.33813	8854
272.35928	8927
272.38043	8882
272.40158	8882
272.42273	8900
272.44388	8926
272.465	8999
272.48615	9016
272.50729	8958
272.52844	9051
272.54959	9088
272.57074	9107
272.59186	9117
272.61301	9121
272.63416	9097
272.6553	9074
272.67645	9089
272.69757	9119
272.71872	9182
272.73987	9248
272.76102	9151
272.78217	9066
272.80328	9003
272.82443	9084
272.84558	9140
272.86673	9262
272.88785	9219
272.909	9152
272.93015	9190
272.95126	9215
272.97241	9212
272.99356	9190
273.01468	9233
273.03583	9213
273.05698	9237
273.07813	9258
273.09924	9221
273.12039	9257
273.14151	9331
273.16266	9262
273.18381	9189
273.20493	9280
273.22607	9264
273.24722	9307
273.26834	9292
273.28949	9282
273.31061	9304
273.33176	9208
273.35291	9150
273.37402	9096
273.39517	9130
273.41629	9107
273.43744	9146
273.45856	9183
273.47971	9235
273.50082	9233
273.52197	9133
273.54312	9175
273.56424	9148
273.58539	9182
273.60651	9241
273.62766	9312
273.64877	9380
273.66992	9398
273.69104	9327
273.71216	9328
273.73331	9419
273.75443	9458
273.77557	9463
273.79669	9467
273.81784	9446
273.83896	9480
273.86011	9393
273.88123	9287
273.90234	9297
273.92349	9368
273.94461	9395
273.96576	9427
273.98688	9508
274.008	9555
274.02914	9534
274.05026	9512
274.07138	9578
274.09253	9585
274.11365	9556
274.13477	9594
274.15591	9686
274.17703	9714
274.19815	9608
274.2193	9587
274.24042	9590
274.26154	9585
274.28265	9616
274.3038	9606
274.32492	9633
274.34604	9606
274.36719	9515
274.38831	9558
274.40942	9555
274.43054	9581
274.45166	9584
274.47281	9692
274.49393	9659
274.51505	9677
274.53616	9603
274.55731	9591
274.57843	9660
274.59955	9704
274.62067	9709
274.64178	9716
274.6629	9724
274.68405	9764
274.70517	9725
274.72629	9641
274.74741	9592
274.76852	9582
274.78964	9581
274.81076	9642
274.83188	9740
274.853	9762
274.87415	9789
274.89526	9787
274.91638	9808
274.9375	9822
274.95862	9842
274.97974	9858
275.00085	9862
275.02197	9883
275.04309	9875
275.06421	9835
275.08533	9893
275.10645	9866
275.12756	9826
275.14868	9952
275.1698	10021
275.19092	10104
275.21204	10037
275.23315	10060
275.25427	9967
275.27539	10107
275.29651	10200
275.31763	10227
275.33875	10263
275.35986	10256
275.38098	10370
275.4021	10342
275.42322	10376
275.44431	10296
275.46542	10301
275.48654	10314
275.50766	10375
275.52878	10305
275.5499	10292
275.57101	10261
275.59213	10287
275.61322	10312
275.63434	10252
275.65546	10264
275.67657	10192
275.69769	10223
275.71881	10212
275.7399	10217
275.76102	10211
275.78214	10262
275.80325	10337
275.82437	10375
275.84546	10445
275.86658	10386
275.8877	10438
275.90881	10430
275.9299	10371
275.95102	10419
275.97214	10436
275.99326	10460
276.01434	10431
276.03546	10410
276.05658	10334
276.07767	10341
276.09879	10352
276.1199	10451
276.14099	10352
276.16211	10405
276.18323	10341
276.20432	10410
276.22543	10425
276.24655	10502
276.26764	10574
276.28876	10566
276.30988	10627
276.33096	10657
276.35208	10605
276.37317	10597
276.39429	10545
276.41541	10598
276.43649	10578
276.45761	10621
276.4787	10606
276.49982	10586
276.5209	10576
276.54202	10592
276.56311	10654
276.58423	10770
276.60532	10810
276.62643	10874
276.64752	10842
276.66864	10773
276.68973	10742
276.71085	10817
276.73193	10901
276.75305	10921
276.77414	11077
276.79526	11130
276.81635	11083
276.83746	11089
276.85855	11048
276.87967	11057
276.90076	11131
276.92184	11156
276.94296	11099
276.96405	11135
276.98517	11103
277.00626	11104
277.02734	11097
277.04846	11016
277.06955	10914
277.09067	10897
277.11176	11032
277.13284	11108
277.15396	11154
277.17505	11145
277.19614	11075
277.21725	11159
277.23834	11258
277.25943	11327
277.28052	11299
277.30164	11317
277.32272	11366
277.34381	11407
277.36493	11321
277.38602	11361
277.4071	11389
277.42819	11417
277.44931	11353
277.4704	11257
277.49149	11304
277.51257	11356
277.53366	11370
277.55478	11308
277.57587	11351
277.59695	11466
277.61804	11427
277.63913	11330
277.66025	11250
277.68134	11273
277.70242	11329
277.72351	11396
277.7446	11420
277.76569	11419
277.78677	11489
277.80789	11324
277.82898	11299
277.85007	11336
277.87115	11365
277.89224	11433
277.91333	11483
277.93442	11617
277.95551	11541
277.97659	11531
277.99768	11585
278.01877	11643
278.03986	11674
278.06094	11713
278.08203	11657
278.10312	11669
278.12424	11663
278.14532	11552
278.16641	11659
278.1875	11717
278.20856	11878
278.22964	11809
278.25073	11859
278.27182	11877
278.29291	11979
278.314	11991
278.33508	11953
278.35617	11940
278.37726	11871
278.39835	11910
278.41943	11940
278.44052	11978
278.46161	12073
278.4827	12025
278.50378	11975
278.52484	11913
278.54593	11880
278.56702	11888
278.5881	11975
278.60919	12101
278.63028	12102
278.65137	12075
278.67242	12107
278.69351	12166
278.7146	12224
278.73569	12209
278.75677	12198
278.77783	12192
278.79892	12204
278.82001	12129
278.84109	12118
278.86215	12201
278.88324	12220
278.90433	12181
278.92542	12121
278.94647	12259
278.96756	12345
278.98865	12329
279.00974	12382
279.03079	12416
279.05188	12329
279.07297	12243
279.09402	12142
279.11511	12105
279.1362	12048
279.15726	12070
279.17834	12162
279.19943	12274
279.22049	12235
279.24158	12218
279.26266	12177
279.28372	12167
279.30481	12165
279.32587	12249
279.34695	12283
279.36804	12375
279.3891	12474
279.41019	12373
279.43124	12353
279.45233	12449
279.47342	12506
279.49448	12540
279.51556	12539
279.53662	12598
279.55771	12574
279.57877	12477
279.59985	12408
279.62091	12337
279.642	12332
279.66306	12359
279.68414	12429
279.7052	12567
279.72629	12669
279.74734	12614
279.76843	12691
279.78949	12698
279.81055	12720
279.83163	12868
279.85269	12900
279.87378	13019
279.89484	13070
279.91592	13027
279.93698	13001
279.95804	13002
279.97913	13014
280.00018	13036
280.02124	13035
280.04233	13065
280.06339	13043
280.08444	12969
280.10553	12999
280.12659	12987
280.14764	13017
280.16873	13035
280.18979	13073
280.21085	13195
280.23193	13143
280.25299	12994
280.27405	12920
280.29514	13013
280.31619	13029
280.33725	13097
280.35831	13271
280.37939	13274
280.40045	13314
280.42151	13306
280.44257	13192
280.46362	13049
280.48471	13048
280.50577	13063
280.52682	13111
280.54788	13167
280.56894	13337
280.59003	13239
280.61108	13256
280.63214	13154
280.6532	13194
280.67426	13235
280.69531	13177
280.71637	13277
280.73746	13281
280.75851	13292
280.77957	13283
280.80063	13219
280.82169	13257
280.84274	13142
280.8638	13218
280.88486	13347
280.90591	13451
280.92697	13456
280.94803	13423
280.96909	13408
280.99014	13408
281.0112	13495
281.03226	13560
281.05331	13633
281.07437	13743
281.09543	13774
281.11649	13744
281.13754	13871
281.1586	13901
281.17966	13877
281.20071	13947
281.22177	13916
281.24283	13961
281.26389	13980
281.28494	13930
281.306	13964
281.32706	13922
281.34811	13950
281.36917	13825
281.39023	13836
281.41129	13795
281.43231	13766
281.45337	13835
281.47443	13881
281.49548	13852
281.51654	13973
281.5376	14049
281.55865	14178
281.57968	14073
281.60074	14170
281.6218	14261
281.64285	14196
281.66391	14148
281.68494	14067
281.70599	14136
281.72705	14213
281.74811	14177
281.76913	14125
281.79019	14021
281.81125	14109
281.83231	14143
281.85333	14121
281.87439	14104
281.89545	14106
281.9165	14037
281.93753	14048
281.95859	14115
281.97964	14214
282.00067	14309
282.02173	14348
282.04279	14340
282.06381	14325
282.08487	14299
282.10593	14264
282.12695	14257
282.14801	14226
282.16907	14324
282.19009	14405
282.21115	14481
282.23218	14423
282.25323	14373
282.27429	14358
282.29532	14452
282.31638	14644
282.3374	14703
282.35846	14818
282.37949	14800
282.40054	14635
282.42157	14589
282.44263	14574
282.46365	14594
282.48471	14890
282.50574	15077
282.52679	15052
282.54782	15131
282.56888	15101
282.5899	15124
282.61096	15068
282.63199	15049
282.65305	15002
282.67407	15058
282.69513	14941
282.71616	14929
282.73718	14887
282.75824	14911
282.77927	14788
282.80032	14800
282.82135	14847
282.84238	15063
282.86343	15103
282.88446	15128
282.90552	15094
282.92654	14992
282.94757	15128
282.96863	15233
282.98965	15404
283.01068	15431
283.03174	15357
283.05276	15446
283.07379	15553
283.09482	15530
283.11588	15338
283.1369	15359
283.15793	15411
283.17899	15366
283.20001	15332
283.22104	15446
283.24207	15471
283.26312	15615
283.28415	15786
283.30518	15903
283.3262	16027
283.34723	15868
283.36829	15732
283.38931	15660
283.41034	15716
283.43137	15658
283.45239	15783
283.47342	15863
283.49448	15942
283.5155	15875
283.53653	15747
283.55756	15775
283.57858	15767
283.59961	15838
283.62064	16008
283.64166	16051
283.66272	16072
283.68375	16174
283.70477	16146
283.7258	16159
283.74683	16186
283.76785	16252
283.78888	16284
283.80991	16306
283.83093	16303
283.85196	16320
283.87299	16279
283.89401	16212
283.91504	16196
283.93607	16270
283.95709	16294
283.97812	16370
283.99915	16509
284.02017	16569
284.0412	16531
284.06223	16484
284.08325	16658
284.10428	16660
284.12531	16749
284.14633	16781
284.16733	16815
284.18835	16786
284.20938	16682
284.23041	16704
284.25143	16720
284.27246	16794
284.29349	16899
284.31451	16929
284.33551	16976
284.35654	16936
284.37756	16894
284.39859	16918
284.41962	16865
284.44064	17038
284.46164	17096
284.48267	17063
284.50369	16961
284.52472	16896
284.54575	16880
284.56674	16988
284.58777	17078
284.6088	17027
284.62982	17008
284.65082	17173
284.67184	17234
284.69287	17204
284.71387	17153
284.73489	17072
284.75592	16960
284.77695	16886
284.79794	16659
284.81897	16428
284.84	16457
284.86099	16462
284.88202	16409
284.90305	16528
284.92404	16630
284.94507	16585
284.96606	16528
284.98709	16559
285.00812	16530
285.02911	16548
285.05014	16673
285.07114	16767
285.09216	17036
285.11319	17073
285.13419	16946
285.15521	16989
285.17621	17162
285.19724	17270
285.21823	17291
285.23926	17281
285.26025	17349
285.28128	17255
285.30228	17004
285.3233	16934
285.3443	17013
285.36533	16990
285.38632	16998
285.40735	17217
285.42834	17399
285.44937	17556
285.47037	17378
285.49136	17272
285.51239	17334
285.53339	17514
285.55441	17674
285.57541	17821
285.59644	17864
285.61743	17959
285.63843	17897
285.65945	17870
285.68045	17817
285.70145	17717
285.72247	17671
285.74347	17700
285.76447	17841
285.78549	17811
285.80649	17795
285.82748	17773
285.84851	17797
285.86951	17863
285.8905	17827
285.9115	17816
285.93253	17849
285.95352	17837
285.97452	17703
285.99554	17671
286.01654	17764
286.03754	17868
286.05853	17914
286.07953	18035
286.10056	18177
286.12155	18211
286.14255	18133
286.16354	17971
286.18454	17898
286.20557	17954
286.22656	18035
286.24756	18081
286.26855	18271
286.28955	18376
286.31055	18296
286.33154	18328
286.35257	18227
286.37357	18218
286.39456	18157
286.41556	18136
286.43655	18140
286.45755	18215
286.47855	18269
286.49954	18283
286.52054	18205
286.54153	18132
286.56253	18154
286.58353	18258
286.60452	18436
286.62552	18432
286.64651	18339
286.66751	18248
286.68851	18243
286.7095	18275
286.7305	18442
286.7515	18616
286.77249	18729
286.79349	18849
286.81448	18748
286.83548	18717
286.85648	18735
286.87747	18772
286.89847	18868
286.91946	18929
286.94046	19003
286.96146	18999
286.98242	18883
287.00342	18872
287.02441	18867
287.04541	18807
287.06641	18548
287.0874	18624
287.1084	18684
287.12936	18646
287.15036	18702
287.17136	18796
287.19235	18748
287.21335	18854
287.23431	18957
287.25531	19111
287.27631	19169
287.2973	19098
287.3183	19175
287.33926	19344
287.36026	19408
287.38126	19306
287.40225	19261
287.42322	19292
287.44421	19400
287.46521	19250
287.48618	19021
287.50717	19064
287.52817	19191
287.54913	19259
287.57013	19223
287.59113	19347
287.61209	19276
287.63309	19201
287.65408	19163
287.67505	19259
287.69604	19400
287.71704	19470
287.73801	19486
287.759	19445
287.77997	19473
287.80096	19393
287.82193	19325
287.84293	19340
287.86392	19293
287.88489	19346
287.90588	19405
287.92685	19434
287.94785	19418
287.96881	19398
287.98981	19399
288.01077	19541
288.03177	19634
288.05273	19736
288.07373	19836
288.0947	19858
288.11569	19769
288.13666	19673
288.15765	19737
288.17862	19910
288.19958	20076
288.22058	20149
288.24155	20117
288.26254	20187
288.28351	20435
288.30447	20326
288.32547	20322
288.34644	20292
288.36743	20222
288.3884	20231
288.40936	20177
288.43036	20122
288.45132	20165
288.47229	20241
288.49329	19939
288.51425	19916
288.53522	19923
288.55621	20200
288.57718	20375
288.59814	20474
288.61911	20396
288.64011	20192
288.66107	20317
288.68204	20487
288.703	20605
288.724	20512
288.74496	20550
288.76593	20571
288.7869	20564
288.80789	20506
288.82886	20471
288.84982	20454
288.87079	20493
288.89175	20338
288.91272	20332
288.93372	20485
288.95468	20603
288.97565	20598
288.99661	20706
289.01758	20806
289.03854	20774
289.05951	20632
289.08051	20420
289.10147	20321
289.12244	20336
289.1434	20325
289.16437	20507
289.18533	20654
289.2063	20726
289.22726	20652
289.24823	20573
289.2692	20512
289.29016	20605
289.31113	20613
289.33209	20780
289.35306	20997
289.37402	21080
289.39499	21006
289.41595	20875
289.43692	21004
289.45789	21073
289.47885	21239
289.49982	21234
289.52078	21242
289.54175	21223
289.56271	21205
289.58368	21058
289.60461	21053
289.62558	21076
289.64655	21070
289.66751	21146
289.68848	21285
289.70944	21540
289.73041	21601
289.75137	21573
289.77231	21591
289.79327	21687
289.81424	21742
289.83521	21692
289.85617	21886
289.87711	21954
289.89807	21893
289.91904	21891
289.94	21968
289.96097	21984
289.9819	21972
290.00287	21924
290.02383	22134
290.0448	22101
290.06573	22028
290.0867	21961
290.10767	21876
290.1286	21879
290.14957	22056
290.17053	22132
290.1915	22164
290.21243	22228
290.2334	22045
290.25436	21893
290.2753	21925
290.29626	22097
290.3172	22192
290.33817	22100
290.35913	22319
290.38007	22423
290.40103	22458
290.422	22514
290.44293	22345
290.4639	22277
290.48483	22161
290.5058	21973
290.52673	21816
290.5477	21813
290.56863	21738
290.5896	21809
290.61053	22010
290.6315	22081
290.65244	22045
290.6734	21994
290.69434	21892
290.7153	21905
290.73624	22021
290.7572	22365
290.77814	22694
290.7991	22823
290.82004	22869
290.841	22669
290.86194	22782
290.8829	22929
290.90384	22950
290.92477	23000
290.94574	23075
290.96667	23051
290.98761	22937
291.00858	22696
291.02951	22559
291.05048	22487
291.07141	22500
291.09235	22728
291.11331	22990
291.13425	23104
291.15518	23125
291.17612	22971
291.19708	22910
291.21802	22985
291.23895	23404
291.25992	23526
291.28085	23662
291.30179	23782
291.32272	23700
291.34369	23626
291.36462	23681
291.38556	23615
291.40649	23624
291.42746	23614
291.44839	23631
291.46933	23608
291.49026	23524
291.5112	23630
291.53214	23547
291.5531	23621
291.57404	23779
291.59497	23680
291.61591	23629
291.63684	23612
291.65778	23491
291.67871	23452
291.69965	23472
291.72061	23656
291.74155	23936
291.76248	24029
291.78342	24162
291.80435	24223
291.82529	24177
291.84622	24136
291.86716	23991
291.88809	23963
291.90903	24004
291.92996	24097
291.9509	24163
291.97183	24156
291.99277	24204
292.0137	24293
292.03464	24314
292.05557	24273
292.07651	24131
292.09744	24028
292.11838	23968
292.13931	24038
292.16025	24096
292.18118	24077
292.20209	24113
292.22302	23921
292.24396	23871
292.26489	23975
292.28583	24323
292.30676	24505
292.3277	24472
292.34863	24323
292.36954	24432
292.39047	24285
292.41141	24218
292.43234	24442
292.45328	24588
292.47421	24809
292.49512	24928
292.51605	24893
292.53699	24920
292.55792	25006
292.57883	25117
292.59976	25161
292.6207	25196
292.64163	25235
292.66254	25136
292.68347	25077
292.70441	25172
292.72531	25288
292.74625	25068
292.76718	24802
292.78812	24702
292.80902	24749
292.82996	24824
292.85089	24862
292.8718	24913
292.89273	25035
292.91364	24992
292.93457	25246
292.95551	25511
292.97641	25618
292.99734	25427
293.01825	25548
293.03918	25715
293.06012	25738
293.08102	25637
293.10196	25717
293.12286	25797
293.1438	25814
293.1647	25650
293.18564	25614
293.20654	25684
293.22748	25781
293.24838	25698
293.26932	25768
293.29022	25912
293.31116	25839
293.33206	25661
293.353	25424
293.3739	25502
293.39484	25589
293.41574	25710
293.43668	25756
293.45758	25648
293.47849	25628
293.49942	25547
293.52032	25608
293.54126	25805
293.56216	25764
293.58307	25728
293.604	26028
293.62491	26066
293.64581	25923
293.66675	25903
293.68765	25855
293.70856	26076
293.72949	26181
293.7504	26284
293.7713	26350
293.79221	26383
293.81314	26301
293.83405	26361
293.85495	26337
293.87589	26526
293.89679	26779
293.91769	26789
293.9386	26781
293.9595	26790
293.98044	26947
294.00134	26960
294.02225	27048
294.04315	27086
294.06406	27183
294.08499	27080
294.1059	27098
294.1268	27254
294.14771	27289
294.16861	27298
294.18951	27096
294.21042	26893
294.23135	27083
294.25226	27240
294.27316	27501
294.29407	27694
294.31497	27515
294.33588	27343
294.35678	27351
294.37769	27585
294.39859	27655
294.41949	27540
294.4404	27458
294.4613	27426
294.48221	27539
294.50311	27624
294.52402	27651
294.54492	27559
294.56583	27571
294.58673	27344
294.60764	27342
294.62854	27577
294.64944	27590
294.67035	27667
294.69125	27610
294.71216	27431
294.73306	27361
294.75397	27166
294.77484	27126
294.79575	27107
294.81665	27028
294.83755	27067
294.85846	27261
294.87936	27448
294.90027	27392
294.92117	27386
294.94205	27404
294.96295	27412
294.98386	27318
295.00476	27533
295.02567	27820
295.04654	27998
295.06744	28122
295.08835	27963
295.10925	28025
295.13013	28270
295.15103	28260
295.17194	28361
295.19284	28268
295.21371	28230
295.23462	28181
295.25552	28043
295.2764	28011
295.2973	28179
295.31821	28265
295.33908	28206
295.35999	28199
295.38089	28463
295.40176	28727
295.42267	28766
295.44357	28749
295.46445	28792
295.48535	28880
295.50626	29000
295.52713	29075
295.54803	29303
295.56891	29542
295.58981	29451
295.61069	29487
295.63159	29552
295.6525	29389
295.67337	29210
295.69427	29220
295.71515	29391
295.73605	29370
295.75693	29302
295.77783	29431
295.79871	29549
295.81961	29652
295.84048	29984
295.86139	29838
295.88226	29853
295.90314	29595
295.92404	29388
295.94492	29406
295.96582	29386
295.98669	29576
296.00757	29674
296.02847	29827
296.04935	30078
296.07025	30117
296.09113	30343
296.112	30145
296.1329	29969
296.15378	29883
296.17465	29998
296.19556	29777
296.21643	29734
296.2373	29756
296.25821	29552
296.27908	29553
296.29996	29748
296.32083	29661
296.34174	29815
296.36261	29926
296.38348	29781
296.40439	29778
296.42526	29872
296.44614	30126
296.46701	30437
296.48788	30799
296.50879	30725
296.52966	30553
296.55054	30618
296.57141	30777
296.59229	30881
296.61316	30876
296.63406	31003
296.65494	31054
296.67581	30821
296.69669	30536
296.71756	30557
296.73843	30478
296.75931	30705
296.78018	30843
296.80106	31172
296.82196	31313
296.84283	31124
296.86371	30958
296.88458	31046
296.90546	31371
296.92633	31677
296.9472	31804
296.96808	31865
296.98895	31974
297.00983	31763
297.0307	31785
297.05157	31948
297.07245	31871
297.09332	32014
297.1142	32005
297.13507	32040
297.15594	32077
297.17679	32073
297.19766	32210
297.21854	32240
297.23941	32274
297.26028	32152
297.28116	32270
297.30203	32228
297.32291	32296
297.34378	32084
297.36462	32244
297.3855	32345
297.40637	32420
297.42725	32509
297.44812	32662
297.46899	32895
297.48984	32851
297.51071	32884
297.53159	33154
297.55246	33291
297.57333	33060
297.59418	32970
297.61505	33064
297.63593	33155
297.65677	33317
297.67764	33275
297.69852	33398
297.71939	33357
297.74023	33457
297.76111	33244
297.78198	33245
297.80283	33190
297.8237	33191
297.84457	33284
297.86542	33673
297.88629	33565
297.90717	33208
297.92801	33163
297.94888	33082
297.96973	33353
297.9906	33477
298.01147	33498
298.03232	33381
298.05319	33465
298.07404	33412
298.09491	33380
298.11575	33671
298.13663	33552
298.15747	34025
298.17834	34098
298.19922	34208
298.22006	34216
298.24094	34216
298.26178	34361
298.28262	34240
298.3035	34332
298.32434	34268
298.34521	34200
298.36606	34191
298.38693	34185
298.40778	34354
298.42865	34243
298.44949	34061
298.47034	33891
298.49121	33807
298.51205	33932
298.5329	34146
298.55377	34365
298.57462	34516
298.59549	34226
298.61633	34497
298.63718	34705
298.65805	34879
298.67889	34522
298.69974	34609
298.72058	34624
298.74146	34852
298.7623	34710
298.78314	34681
298.80402	34752
298.82486	34808
298.8457	34429
298.86655	34331
298.88742	34296
298.90826	34411
298.92911	34282
298.94995	34282
298.97079	34394
298.99167	34187
299.01251	34024
299.03336	33725
299.0542	33698
299.07504	33560
299.09589	33673
299.11673	33740
299.1376	33860
299.15845	33875
299.17929	33839
299.20013	33926
299.22098	33983
299.24182	33805
299.26266	34264
299.28351	34257
299.30435	34269
299.3252	34208
299.34604	33974
299.36688	33844
299.38773	34179
299.40857	34311
299.42941	34733
299.45026	34866
299.4711	34929
299.49194	34959
299.51279	34720
299.53363	34469
299.55447	34629
299.57532	34685
299.59616	34801
299.617	34919
299.63785	34984
299.65869	35418
299.67953	35482
299.70038	35432
299.72119	35337
299.74203	35357
299.76288	35335
299.78372	35306
299.80457	35465
299.82541	35615
299.84625	35752
299.86707	35729
299.88791	35645
299.90875	35410
299.9296	35526
299.95044	35376
299.97125	35785
299.9921	35829
300.01294	35397
300.03378	35430
300.0546	35673
300.07544	35672
300.09628	35610
300.11713	35711
300.13794	35693
300.15878	35707
300.17963	35665
300.20044	35578
300.22128	35694
300.24213	35863
300.26294	35781
300.28378	35837
300.30463	35892
300.32544	36112
300.34628	36018
300.3671	36104
300.38794	35726
300.40878	35570
300.4296	35547
300.45044	35533
300.47125	35487
300.4921	35325
300.51291	35340
300.53375	35575
300.5546	35635
300.57541	35537
300.59625	35847
300.61707	35442
300.63791	35455
300.65872	35611
300.67957	35943
300.70038	36195
300.72119	36752
300.74203	36640
300.76285	36720
300.78369	36409
300.8045	36323
300.82535	36195
300.84616	36471
300.86697	36405
300.88782	36785
300.90863	36509
300.92947	36513
300.95029	36295
300.9711	35873
300.99194	36146
301.01276	36148
301.03357	36433
301.05441	36801
301.07523	37230
301.09604	37169
301.11688	36966
301.1377	36706
301.15851	36936
301.17932	37233
301.20016	37294
301.22098	37400
301.24179	37523
301.2626	37477
301.28345	37347
301.30426	37419
301.32507	37383
301.34589	37454
301.3667	37448
301.38754	37462
301.40836	37781
301.42917	37583
301.44998	37587
301.47079	37348
301.49161	37493
301.51242	37662
301.53326	37589
301.55408	37567
301.57489	37716
301.5957	37489
301.61652	37535
301.63733	37375
301.65814	37504
301.67896	38032
301.69977	38069
301.72058	38264
301.74139	38371
301.76221	38429
301.78302	38094
301.80383	37649
301.82465	37583
301.84546	37670
301.86627	37579
301.88708	37647
301.9079	37588
301.92871	37505
301.94952	37240
301.97034	37390
301.99115	37495
302.01196	37785
302.03278	37572
302.05359	38070
302.0744	37540
302.09518	38080
302.116	38078
302.13681	38675
302.15762	38859
302.17844	38946
302.19925	39017
302.22006	39063
302.24084	38843
302.26166	39122
302.28247	39033
302.30328	39147
302.3241	39125
302.34488	38896
302.36569	38789
302.38651	38895
302.40732	38926
302.4281	39134
302.44891	39271
302.46973	39612
302.49054	39630
302.51132	39593
302.53214	39388
302.55295	39440
302.57373	39430
302.59454	39733
302.61536	39899
302.63614	39879
302.65695	40088
302.67776	40263
302.69855	40245
302.71936	40135
302.74014	40249
302.76096	40542
302.78177	40674
302.80255	40430
302.82336	40569
302.84415	40237
302.86496	40307
302.88574	40482
302.90656	40291
302.92734	40005
302.94815	40353
302.96893	40182
302.98975	40461
303.01053	40497
303.03134	40328
303.05212	40622
303.07294	40909
303.09372	40894
303.11453	41164
303.13531	40854
303.15613	41434
303.17691	41547
303.19769	41217
303.21851	41560
303.23929	41387
303.2601	41313
303.28088	41272
303.30167	41468
303.32248	41389
303.34326	41285
303.36404	41146
303.38486	41292
303.40564	41466
303.42642	41355
303.44724	41004
303.46802	41087
303.4888	41010
303.50958	41113
303.5304	41144
303.55118	40935
303.57196	40774
303.59274	40979
303.61356	41139
303.63434	40912
303.65512	41119
303.6759	41120
303.69672	40839
303.7175	41102
303.73828	40824
303.75906	41062
303.77985	40891
303.80063	41243
303.82144	41021
303.84222	41109
303.86301	41064
303.88379	40929
303.90457	41011
303.92535	40886
303.94614	41216
303.96692	40953
303.9877	41337
304.00848	41308
304.02927	41270
304.05005	41178
304.07083	41281
304.09161	40969
304.11243	41134
304.13321	41023
304.15399	41264
304.17477	41378
304.19553	41369
304.21631	41399
304.23709	41444
304.25787	41189
304.27866	41379
304.29944	41087
304.32022	41252
304.341	41395
304.36179	40995
304.38257	41484
304.40335	41138
304.42413	41583
304.44492	41650
304.46567	41579
304.48645	41680
304.50723	41749
304.52802	41613
304.5488	41646
304.56958	41340
304.59033	40389
304.61111	38318
