Date and Time:                Fri Oct 7 11:58:46.000 2022
Software Version:             4.31.30023.0
Temperature (C):              -40
Model:                        DU940P_BU2
Data Type:                    Counts
Acquisition Mode:             Single Scan
Trigger Mode:                 Internal
Exposure Time (secs):         2.2
Readout Mode:                 Full Vertical Binning
Horizontal binning:           1
Extended Dynamic Range:       off
Horizontally flipped:         false
Vertical Shift Speed (usecs): 14.51
Pixel Readout Rate (MHz):     3
Baseline Clamp:               ON
Clock Amplitude:              Normal
Output Amplifier:             High Capacity
Serial Number:                23634
Pre-Amplifier Gain:           1.000000
Spurious Noise Filter Mode:   No Filter
Photon counted:               false
Data Averaging Filter Mode:   No Filter
SR500i:
Serial Number:                
Wavelength (nm):              225
Grating Groove Density (l/mm):1199.47
Grating Blaze:                500
Output Flipper Port:          Direct
Accessory Output Port 1:      Off
Accessory Output Port 2:      Off
Accessory Output Port 3:      Off
Accessory Input Port:         On



203.08546	11755
203.10698	11277
203.12848	11331
203.14999	11319
203.17151	11243
203.19302	11438
203.21452	11524
203.23604	11476
203.25755	11514
203.27905	11580
203.30057	11615
203.32208	11598
203.34358	11643
203.3651	11947
203.38661	12141
203.40811	12416
203.42963	12569
203.45113	12558
203.47264	12562
203.49416	12532
203.51566	12400
203.53717	12363
203.55867	12269
203.58018	12224
203.60168	12101
203.6232	12143
203.6447	12140
203.66621	12080
203.68771	12004
203.70923	11918
203.73073	11866
203.75224	11779
203.77374	11731
203.79526	11704
203.81676	11674
203.83827	11668
203.85977	11703
203.88127	11669
203.90279	11705
203.92429	11702
203.94579	11684
203.9673	11728
203.9888	11713
204.01031	11730
204.03181	11723
204.05331	11757
204.07481	11815
204.09633	11780
204.11783	11779
204.13933	11844
204.16084	11726
204.18234	11692
204.20384	11730
204.22534	11727
204.24684	11747
204.26836	11736
204.28986	11661
204.31136	11752
204.33286	11694
204.35435	11755
204.37587	11736
204.39737	11718
204.41887	11733
204.44037	11699
204.46187	11720
204.48337	11694
204.50487	11686
204.52637	11646
204.54787	11634
204.56937	11615
204.59087	11615
204.61237	11724
204.63387	11754
204.65536	11724
204.67688	11780
204.69836	11724
204.71986	11716
204.74136	11650
204.76286	11731
204.78436	11693
204.80586	11718
204.82736	11758
204.84886	11723
204.87036	11717
204.89186	11763
204.91336	11784
204.93486	11899
204.95636	11877
204.97784	11925
204.99934	11903
205.02084	11882
205.04234	11876
205.06384	11859
205.08534	11896
205.10683	11935
205.12833	11942
205.14983	11980
205.17133	11898
205.19281	11944
205.21431	12060
205.23581	12066
205.25731	11995
205.27879	12065
205.30029	12075
205.32179	12121
205.34328	12155
205.36478	12172
205.38628	12294
205.40776	12223
205.42926	12193
205.45074	12194
205.47224	12203
205.49374	12223
205.51523	12269
205.53673	12338
205.55821	12333
205.57971	12349
205.6012	12364
205.6227	12444
205.6442	12454
205.66568	12450
205.68718	12508
205.70866	12561
205.73015	12549
205.75165	12517
205.77313	12589
205.79463	12665
205.81612	12749
205.83762	12740
205.8591	12779
205.88058	12945
205.90208	13008
205.92357	13074
205.94507	13172
205.96655	13304
205.98804	13319
206.00954	13418
206.03102	13326
206.05251	13253
206.07401	13180
206.09549	13144
206.11697	12955
206.13846	12858
206.15996	12710
206.18144	12643
206.20293	12590
206.22441	12578
206.24591	12543
206.2674	12551
206.28888	12617
206.31036	12611
206.33185	12601
206.35335	12586
206.37483	12671
206.39632	12703
206.4178	12720
206.43929	12727
206.46077	12756
206.48225	12712
206.50374	12645
206.52522	12661
206.54672	12586
206.56821	12555
206.58969	12643
206.61118	12630
206.63266	12615
206.65414	12623
206.67563	12629
206.69711	12709
206.7186	12649
206.74008	12599
206.76157	12623
206.78304	12640
206.80452	12613
206.826	12628
206.84749	12677
206.86897	12609
206.89046	12694
206.91194	12696
206.93343	12654
206.95491	12662
206.97638	12649
206.99786	12710
207.01935	12750
207.04083	12722
207.06232	12703
207.0838	12754
207.10527	12806
207.12675	12765
207.14824	12755
207.16972	12753
207.19119	12761
207.21268	12735
207.23416	12707
207.25563	12679
207.27711	12721
207.2986	12762
207.32007	12772
207.34155	12808
207.36304	12789
207.38451	12854
207.40599	12942
207.42747	12965
207.44894	12951
207.47043	12911
207.4919	12874
207.51338	12863
207.53487	12890
207.55634	12901
207.57782	12956
207.59929	13053
207.62077	12990
207.64224	12985
207.66373	13040
207.6852	12978
207.70668	12979
207.72815	13026
207.74962	13094
207.7711	13162
207.79257	13204
207.81406	13189
207.83553	13107
207.85701	13193
207.87848	13229
207.89995	13163
207.92143	13151
207.9429	13196
207.96437	13185
207.98586	13188
208.00732	13168
208.02879	13179
208.05028	13213
208.07175	13183
208.09322	13287
208.11469	13314
208.13617	13324
208.15764	13289
208.17911	13325
208.20058	13283
208.22205	13334
208.24353	13340
208.265	13356
208.28647	13477
208.30794	13459
208.32941	13478
208.35088	13445
208.37236	13500
208.39383	13463
208.4153	13452
208.43677	13448
208.45824	13427
208.47971	13401
208.50117	13384
208.52264	13347
208.54411	13412
208.56558	13449
208.58705	13320
208.60852	13367
208.62999	13344
208.65146	13272
208.67293	13251
208.6944	13238
208.71587	13264
208.73734	13257
208.7588	13297
208.78027	13368
208.80174	13402
208.82321	13394
208.84467	13355
208.86613	13328
208.8876	13279
208.90907	13287
208.93054	13287
208.95201	13216
208.97346	13283
208.99493	13202
209.0164	13134
209.03787	13146
209.05934	13191
209.0808	13229
209.10226	13176
209.12373	13053
209.1452	13145
209.16666	13108
209.18813	13139
209.20959	13164
209.23105	13227
209.25252	13318
209.27399	13318
209.29544	13205
209.31691	13277
209.33836	13179
209.35983	13217
209.3813	13275
209.40276	13264
209.42422	13261
209.44568	13307
209.46715	13277
209.4886	13276
209.51007	13162
209.53152	13275
209.55299	13264
209.57445	13371
209.59592	13413
209.61737	13360
209.63884	13355
209.66029	13252
209.68176	13380
209.70322	13336
209.72469	13371
209.74614	13405
209.76759	13436
209.78906	13411
209.81052	13378
209.83197	13395
209.85344	13389
209.87489	13423
209.89635	13462
209.91782	13438
209.93927	13438
209.96072	13424
209.98219	13412
210.00365	13463
210.0251	13488
210.04655	13444
210.06802	13496
210.08948	13560
210.11093	13521
210.13239	13546
210.15384	13448
210.17531	13530
210.19676	13604
210.21822	13573
210.23967	13619
210.26112	13696
210.28258	13688
210.30403	13753
210.32549	13803
210.34695	13791
210.36841	13788
210.38986	13758
210.41132	13647
210.43277	13704
210.45422	13700
210.47568	13799
210.49713	13912
210.51859	13940
210.54004	13872
210.56149	13855
210.58295	13839
210.6044	13882
210.62585	13912
210.64729	13984
210.66875	14008
210.6902	14016
210.71165	14039
210.73311	14034
210.75456	14111
210.77602	14107
210.79747	14122
210.81891	14168
210.84036	14170
210.86182	14185
210.88327	14163
210.90472	14190
210.92616	14135
210.94762	14233
210.96907	14149
210.99052	14206
211.01196	14259
211.03342	14271
211.05487	14321
211.07631	14307
211.09776	14268
211.11922	14268
211.14066	14229
211.16211	14187
211.18356	14210
211.205	14293
211.22646	14261
211.24791	14188
211.26935	14162
211.2908	14106
211.31224	14083
211.33369	14075
211.35513	14179
211.37659	14207
211.39803	14174
211.41948	14133
211.44092	14182
211.46237	14118
211.48381	14158
211.50526	14236
211.5267	14315
211.54816	14258
211.5696	14337
211.59103	14310
211.61249	14274
211.63393	14341
211.65538	14296
211.67682	14289
211.69826	14330
211.71971	14449
211.74115	14373
211.76259	14377
211.78404	14323
211.80548	14364
211.82692	14318
211.84836	14184
211.86981	14163
211.89125	14175
211.91269	14199
211.93413	14239
211.95558	14209
211.97702	14325
211.99846	14230
212.0199	14185
212.04134	14211
212.06277	14168
212.08423	14144
212.10567	14140
212.12711	14293
212.14854	14313
212.16998	14308
212.19142	14329
212.21286	14320
212.2343	14404
212.25574	14360
212.27718	14370
212.29861	14376
212.32005	14397
212.34149	14339
212.36293	14285
212.38437	14281
212.40581	14354
212.42725	14334
212.44868	14340
212.47012	14384
212.49156	14440
212.513	14583
212.53444	14485
212.55588	14507
212.57732	14462
212.59874	14479
212.62018	14495
212.64162	14574
212.66306	14628
212.68449	14672
212.70593	14647
212.72736	14653
212.74879	14623
212.77023	14655
212.79167	14605
212.8131	14671
212.83453	14768
212.85597	14729
212.87741	14669
212.89883	14666
212.92027	14704
212.94171	14686
212.96313	14693
212.98457	14696
213.00601	14673
213.02744	14622
213.04887	14569
213.0703	14607
213.09174	14591
213.11317	14573
213.1346	14593
213.15604	14678
213.17746	14799
213.1989	14754
213.22032	14750
213.24176	14760
213.26318	14716
213.28462	14699
213.30605	14619
213.32748	14620
213.34891	14590
213.37033	14615
213.39177	14636
213.41319	14666
213.43463	14705
213.45605	14676
213.47748	14717
213.49892	14602
213.52034	14679
213.54176	14747
213.5632	14740
213.58463	14787
213.60605	14911
213.62749	14858
213.64891	14893
213.67033	14951
213.69177	15025
213.7132	14974
213.73462	14906
213.75604	14926
213.77747	14912
213.7989	14935
213.82033	14928
213.84175	14876
213.86317	14899
213.8846	14882
213.90602	14908
213.92744	14938
213.94888	15126
213.97031	15168
213.99173	15125
214.01315	15114
214.03458	15128
214.056	15118
214.07742	15161
214.09885	15225
214.12027	15329
214.14169	15378
214.16312	15443
214.18454	15406
214.20596	15386
214.22739	15236
214.24881	15228
214.27023	15250
214.29166	15248
214.31308	15241
214.33449	15229
214.35591	15153
214.37733	15210
214.39876	15192
214.42018	15091
214.4416	15022
214.46303	15043
214.48444	14975
214.50586	15022
214.52728	15002
214.54871	15018
214.57011	15040
214.59154	15076
214.61296	15222
214.63438	15101
214.65579	15216
214.67722	15150
214.69864	15137
214.72005	15150
214.74147	15131
214.76289	15089
214.7843	15073
214.80573	15074
214.82715	15065
214.84856	14951
214.86998	14927
214.89139	14966
214.91281	15022
214.93423	14955
214.95564	14981
214.97707	14962
214.99847	14889
215.0199	14881
215.04131	14870
215.06273	14990
215.08414	14959
215.10556	14940
215.12697	15000
215.14838	14955
215.1698	14944
215.19121	14814
215.21263	14886
215.23404	14846
215.25545	14870
215.27687	14843
215.29828	14873
215.31969	14854
215.34111	14794
215.36252	14820
215.38393	14934
215.40535	15042
215.42676	14990
215.44817	15030
215.46957	14943
215.491	14922
215.51241	14982
215.53381	15003
215.55522	15019
215.57663	15084
215.59805	15142
215.61946	15070
215.64087	15110
215.66228	15105
215.68369	15120
215.70509	15174
215.7265	15150
215.74792	15147
215.76933	15119
215.79074	15095
215.81215	15114
215.83356	15175
215.85497	15163
215.87637	15075
215.89778	15027
215.91919	15017
215.9406	15063
215.96201	15026
215.98341	15122
216.00482	15158
216.02623	15150
216.04762	15206
216.06903	15187
216.09044	15195
216.11185	15165
216.13326	15133
216.15466	15210
216.17607	15217
216.19748	15149
216.21887	15281
216.24028	15291
216.26169	15252
216.2831	15309
216.3045	15272
216.3259	15318
216.34731	15350
216.36871	15220
216.39012	15182
216.41151	15152
216.43292	15048
216.45433	15081
216.47572	15111
216.49713	15149
216.51854	15242
216.53993	15183
216.56134	15139
216.58273	15204
216.60414	15287
216.62555	15236
216.64694	15246
216.66835	15275
216.68974	15288
216.71115	15301
216.73254	15227
216.75395	15259
216.77534	15326
216.79675	15383
216.81815	15380
216.83955	15348
216.86095	15409
216.88235	15494
216.90375	15521
216.92514	15487
216.94655	15478
216.96794	15531
216.98935	15502
217.01074	15553
217.03214	15598
217.05354	15578
217.07494	15573
217.09633	15612
217.11774	15551
217.13913	15489
217.16052	15492
217.18192	15563
217.20332	15594
217.22472	15563
217.24611	15496
217.2675	15500
217.28891	15578
217.3103	15522
217.3317	15562
217.35309	15587
217.37448	15591
217.39587	15558
217.41727	15482
217.43867	15484
217.46007	15440
217.48146	15484
217.50285	15516
217.52425	15585
217.54564	15685
217.56703	15645
217.58842	15753
217.60982	15752
217.63121	15704
217.6526	15660
217.674	15572
217.69539	15533
217.71678	15490
217.73817	15534
217.75957	15521
217.78096	15582
217.80235	15650
217.82373	15995
217.84512	16706
217.86652	16254
217.88791	15668
217.9093	15565
217.93069	15683
217.95209	15726
217.97346	15625
217.99486	15702
218.01625	15638
218.03764	15707
218.05902	15756
218.08041	15954
218.10181	16307
218.1232	16147
218.14458	16000
218.16597	15991
218.18736	16068
218.20874	16115
218.23013	15783
218.25153	15679
218.2729	15737
218.2943	15856
218.31567	15845
218.33707	15882
218.35846	15845
218.37984	15740
218.40123	15660
218.42261	15683
218.444	15783
218.46538	15948
218.48677	15993
218.50815	16021
218.52954	15942
218.55092	16089
218.57231	16207
218.59369	16037
218.61507	16511
218.63646	16490
218.65784	15946
218.67923	15727
218.70061	15858
218.72198	16098
218.74338	16062
218.76476	15792
218.78613	15595
218.80753	15517
218.8289	15482
218.85028	15420
218.87166	15449
218.89305	15481
218.91443	15473
218.93581	15535
218.95718	15569
218.97858	15558
218.99995	15521
219.02133	15508
219.04271	15533
219.06409	15477
219.08546	15461
219.10686	15423
219.12823	15341
219.14961	15410
219.17099	15359
219.19237	15298
219.21375	15314
219.23512	15375
219.2565	15333
219.27788	15346
219.29926	15278
219.32063	15261
219.34201	15269
219.36339	15268
219.38477	15274
219.40614	15385
219.42752	15487
219.4489	15495
219.47028	15410
219.49165	15401
219.51303	15426
219.53439	15341
219.55577	15342
219.57715	15348
219.59853	15402
219.6199	15257
219.64128	15305
219.66264	15232
219.68402	15308
219.7054	15180
219.72678	15255
219.74814	15431
219.76952	15464
219.79089	15365
219.81227	15419
219.83363	15278
219.85501	15249
219.87639	15286
219.89775	15358
219.91913	15492
219.94051	15575
219.96187	15529
219.98325	15506
220.00461	15551
220.02599	15602
220.04735	15588
220.06873	15474
220.0901	15534
220.11147	15553
220.13284	15460
220.15421	15499
220.17558	15504
220.19695	15508
220.21832	15538
220.23969	15445
220.26105	15519
220.28242	15557
220.30379	15542
220.32516	15622
220.34653	15762
220.36789	15785
220.38927	15929
220.41063	16099
220.43199	16233
220.45337	16095
220.47473	16098
220.49609	16027
220.51747	15997
220.53883	15909
220.5602	15883
220.58156	15822
220.60294	15755
220.6243	15733
220.64566	15635
220.66702	15566
220.68839	15605
220.70976	15637
220.73112	15688
220.75249	15630
220.77385	15579
220.79521	15560
220.81657	15456
220.83794	15412
220.8593	15438
220.88066	15352
220.90202	15427
220.92339	15472
220.94475	15543
220.96611	15481
220.98747	15448
221.00883	15402
221.0302	15353
221.05156	15417
221.07292	15446
221.09428	15446
221.11565	15465
221.13701	15442
221.15837	15444
221.17973	15399
221.2011	15554
221.22246	15565
221.2438	15582
221.26517	15512
221.28653	15464
221.30789	15516
221.32925	15462
221.3506	15479
221.37196	15440
221.39333	15557
221.41469	15455
221.43604	15466
221.4574	15397
221.47876	15472
221.50011	15517
221.52147	15482
221.54283	15489
221.56418	15417
221.58554	15406
221.6069	15391
221.62825	15478
221.64961	15455
221.67096	15448
221.69232	15276
221.71368	15376
221.73503	15314
221.75639	15338
221.77774	15409
221.7991	15452
221.82045	15453
221.84181	15427
221.86316	15473
221.88451	15486
221.90587	15444
221.92722	15549
221.94858	15525
221.96992	15532
221.99127	15524
222.01263	15535
222.03398	15537
222.05534	15636
222.07669	15569
222.09804	15597
222.11938	15695
222.14075	15702
222.16209	15756
222.18344	15659
222.2048	15528
222.22615	15575
222.2475	15456
222.26884	15438
222.29019	15455
222.31155	15460
222.3329	15493
222.35425	15473
222.3756	15430
222.39694	15466
222.41829	15508
222.43964	15591
222.46098	15550
222.48235	15600
222.50369	15556
222.52504	15512
222.54639	15561
222.56773	15557
222.58908	15591
222.61043	15555
222.63177	15554
222.65312	15710
222.67447	15748
222.69582	15845
222.71715	15687
222.73849	15708
222.75984	15750
222.78119	15713
222.80254	15772
222.82388	15749
222.84523	15869
222.86658	15866
222.88791	15846
222.90926	15833
222.9306	15876
222.95195	15872
222.9733	15914
222.99463	15957
223.01598	16004
223.03732	15950
223.05867	15880
223.08	15942
223.10135	15986
223.1227	16128
223.14403	16062
223.16537	16077
223.18672	16030
223.20805	16023
223.2294	16042
223.25073	15965
223.27208	16014
223.29343	15924
223.31476	16055
223.33611	16039
223.35744	16023
223.37878	16061
223.40012	16106
223.42146	16044
223.44279	16035
223.46414	15951
223.48547	15939
223.50682	15888
223.52815	15898
223.54948	15871
223.57083	15874
223.59216	15930
223.61349	15975
223.63484	15995
223.65617	15965
223.67752	16002
223.69885	15987
223.72018	15984
223.74152	16064
223.76286	16196
223.78419	16234
223.80553	16254
223.82686	16196
223.84821	16197
223.86954	16103
223.89087	16131
223.9122	16167
223.93353	16119
223.95488	16132
223.97621	16044
223.99754	15965
224.01888	15892
224.04021	15900
224.06154	15844
224.08287	15910
224.1042	16028
224.12553	16067
224.14687	16014
224.1682	15986
224.18953	15889
224.21086	15833
224.23219	15799
224.25352	15989
224.27486	16015
224.29619	16150
224.31752	16119
224.33885	16110
224.36018	16169
224.38152	16193
224.40285	16205
224.42418	16148
224.4455	16186
224.46683	16212
224.48816	16082
224.50949	16041
224.53082	16012
224.55214	15943
224.57347	15915
224.5948	15978
224.61613	15976
224.63745	15974
224.65878	16002
224.68011	15946
224.70145	15984
224.72276	16045
224.74409	16065
224.76541	16161
224.78674	16253
224.80807	16276
224.82939	16207
224.85072	16287
224.87204	16346
224.89337	16270
224.9147	16101
224.93602	16152
224.95735	16222
224.97867	16112
225	16052
225.02132	16182
225.04265	16278
225.06396	16320
225.08528	16318
225.10661	16341
225.12793	16355
225.14926	16371
225.17058	16368
225.19189	16399
225.21323	16460
225.23454	16516
225.25586	16454
225.27719	16480
225.29851	16571
225.31982	16543
225.34116	16515
225.36247	16490
225.38379	16433
225.40511	16429
225.42644	16505
225.44775	16391
225.46907	16393
225.49039	16399
225.5117	16393
225.53304	16427
225.55435	16513
225.57567	16564
225.59698	16544
225.6183	16574
225.63962	16546
225.66093	16474
225.68225	16519
225.70357	16566
225.72488	16585
225.7462	16657
225.76752	16630
225.78883	16622
225.81015	16613
225.83147	16584
225.85278	16599
225.8741	16634
225.89542	16726
225.91673	16659
225.93805	16665
225.95937	16701
225.98068	16648
226.00198	16723
226.0233	16586
226.04462	16615
226.06593	16639
226.08725	16702
226.10855	16683
226.12987	16755
226.15118	16722
226.1725	16753
226.1938	16823
226.21512	16910
226.23643	16884
226.25775	16896
226.27905	16838
226.30037	16804
226.32167	16793
226.34299	16746
226.3643	16786
226.3856	16812
226.40692	16786
226.42824	16731
226.44954	16647
226.47086	16732
226.49216	16691
226.51347	16700
226.53477	16647
226.55609	16554
226.57739	16590
226.59871	16594
226.62001	16453
226.64131	16339
226.66263	16365
226.68393	16411
226.70525	16389
226.72655	16552
226.74785	16541
226.76917	16446
226.79047	16387
226.81177	16473
226.83308	16494
226.85439	16368
226.87569	16426
226.897	16568
226.9183	16540
226.93961	16486
226.96091	16461
226.98222	16522
227.00352	16690
227.02483	16719
227.04613	16750
227.06743	16638
227.08873	16685
227.11005	16611
227.13135	16565
227.15265	16534
227.17395	16663
227.19525	16679
227.21655	16646
227.23785	16720
227.25916	16686
227.28046	16864
227.30176	16804
227.32306	16877
227.34436	16768
227.36566	16784
227.38696	16800
227.40826	16878
227.42957	16871
227.45087	16919
227.47217	16914
227.49347	16920
227.51476	16901
227.53606	16856
227.55736	16808
227.57866	16976
227.59996	17042
227.62126	16991
227.64255	17010
227.66385	16957
227.68515	17013
227.70645	17102
227.72774	17107
227.74904	17193
227.77034	17228
227.79163	17225
227.81293	17126
227.83423	17109
227.85551	17137
227.87682	17168
227.89812	17184
227.9194	17302
227.9407	17353
227.96199	17432
227.98329	17359
228.00459	17245
228.02588	17224
228.04718	17243
228.06847	17328
228.08977	17314
228.11105	17407
228.13234	17454
228.15364	17402
228.17493	17482
228.19623	17548
228.21751	17660
228.23882	17673
228.2601	17704
228.28139	17803
228.30269	17761
228.32397	17746
228.34526	17766
228.36656	17746
228.38785	17743
228.40913	17746
228.43042	17683
228.45172	17970
228.47301	18061
228.49429	18056
228.51558	17992
228.53688	18005
228.55817	18017
228.57945	18120
228.60074	18183
228.62202	18278
228.64331	18279
228.6646	18367
228.6859	18349
228.70718	18360
228.72847	18338
228.74976	18408
228.77104	18540
228.79233	18674
228.81361	18689
228.8349	18622
228.85619	18579
228.87747	18644
228.89876	18568
228.92004	18619
228.94133	18688
228.9626	18752
228.98389	18768
229.00517	18787
229.02646	18782
229.04774	18754
229.06903	18909
229.09032	19003
229.11159	19125
229.13287	19166
229.15416	19181
229.17545	19164
229.19673	19253
229.218	19192
229.23929	19222
229.26057	19164
229.28185	19265
229.30313	19150
229.32442	19141
229.34569	19150
229.36697	19158
229.38826	19232
229.40953	19258
229.43082	19141
229.45209	19112
229.47337	19110
229.49466	19172
229.51593	19165
229.53722	19271
229.55849	19393
229.57977	19488
229.60104	19416
229.62233	19333
229.6436	19221
229.66489	19136
229.68616	19158
229.70743	19032
229.72871	19091
229.74998	19021
229.77126	19057
229.79254	18945
229.81381	18856
229.8351	18844
229.85637	18839
229.87764	18934
229.89891	18959
229.9202	18919
229.94147	18797
229.96274	18724
229.98401	18699
230.00529	18712
230.02657	18787
230.04784	18764
230.06911	18868
230.09038	18921
230.11165	18870
230.13293	18788
230.15421	18770
230.17548	18799
230.19675	18684
230.21802	18643
230.23929	18653
230.26056	18596
230.28183	18521
230.3031	18540
230.32437	18404
230.34564	18411
230.36691	18294
230.38818	18232
230.40945	18258
230.43073	18279
230.452	18233
230.47327	18319
230.49454	18177
230.51579	18174
230.53706	18297
230.55833	18393
230.57961	18389
230.60088	18363
230.62215	18346
230.6434	18344
230.66467	18271
230.68594	18257
230.70721	18158
230.72847	18172
230.74974	18152
230.77101	18091
230.79227	18046
230.81354	18103
230.83481	18139
230.85606	18173
230.87733	18239
230.89861	18229
230.91986	18184
230.94113	18191
230.96239	18066
230.98366	18101
231.00491	18156
231.02618	18178
231.04744	18224
231.06871	18259
231.08997	18266
231.11124	18266
231.13249	18159
231.15376	18183
231.17502	18186
231.19629	18235
231.21754	18288
231.2388	18286
231.26007	18247
231.28133	18222
231.30258	18268
231.32385	18347
231.34511	18417
231.36636	18338
231.38763	18415
231.40889	18389
231.43015	18390
231.4514	18459
231.47266	18353
231.49393	18446
231.51518	18535
231.53644	18574
231.55769	18543
231.57895	18592
231.6002	18664
231.62148	18640
231.64273	18629
231.66399	18594
231.68524	18625
231.7065	18556
231.72775	18679
231.74901	18717
231.77026	18661
231.79152	18616
231.81277	18525
231.83403	18438
231.85529	18417
231.87654	18500
231.8978	18603
231.91905	18578
231.94031	18564
231.96155	18548
231.9828	18589
232.00406	18548
232.02531	18593
232.04657	18541
232.06783	18566
232.08907	18569
232.11032	18591
232.13158	18512
232.15283	18530
232.17407	18591
232.19533	18562
232.21658	18508
232.23784	18529
232.25908	18517
232.28033	18616
232.30159	18532
232.32283	18507
232.34409	18522
232.36533	18383
232.38658	18336
232.40784	18256
232.42908	18145
232.45033	18166
232.47157	18154
232.49283	18172
232.51407	18275
232.53532	18347
232.55656	18256
232.57782	18166
232.59906	18100
232.6203	18047
232.64156	18143
232.6628	18266
232.68405	18351
232.70529	18269
232.72653	18276
232.74779	18377
232.76903	18290
232.79027	18397
232.81152	18423
232.83276	18500
232.854	18447
232.87524	18348
232.8965	18265
232.91774	18287
232.93898	18272
232.96022	18326
232.98146	18298
233.00272	18294
233.02396	18402
233.0452	18439
233.06644	18545
233.08768	18499
233.10892	18557
233.13016	18550
233.1514	18593
233.17264	18561
233.19388	18618
233.21512	18699
233.23636	18722
233.2576	18669
233.27884	18755
233.30008	18682
233.32132	18659
233.34256	18629
233.3638	18696
233.38504	18780
233.40628	18757
233.42752	18672
233.44876	18755
233.46999	18696
233.49123	18749
233.51247	18837
233.53371	18809
233.55495	18935
233.57617	18851
233.59741	18737
233.61865	18870
233.63989	18895
233.66112	18876
233.68236	18873
233.7036	18990
233.72482	19094
233.74606	19010
233.7673	18909
233.78853	18843
233.80977	18832
233.83099	18734
233.85223	18803
233.87347	18816
233.8947	18848
233.91594	18872
233.93716	18904
233.9584	18918
233.97963	18987
234.00087	18997
234.02209	18959
234.04332	18954
234.06456	18968
234.08578	18949
234.10703	18954
234.12825	18944
234.14948	18981
234.17072	18914
234.19194	18868
234.21317	19028
234.23441	19239
234.25563	19273
234.27686	19258
234.29808	19192
234.31932	19180
234.34055	19166
234.36177	19239
234.383	19197
234.40424	19437
234.42546	19396
234.44669	19501
234.46791	19436
234.48914	19455
234.51036	19473
234.53159	19426
234.55281	19494
234.57404	19523
234.59526	19508
234.61649	19524
234.63773	19535
234.65895	19617
234.68016	19537
234.70139	19547
234.72261	19498
234.74384	19480
234.76506	19376
234.78629	19419
234.80751	19462
234.82874	19525
234.84996	19527
234.87119	19622
234.89241	19691
234.91362	19774
234.93484	19708
234.95607	19693
234.97729	19768
234.9985	19694
235.01973	19696
235.04095	19657
235.06218	19700
235.08339	19780
235.10461	19765
235.12584	19618
235.14705	19650
235.16827	19756
235.1895	19687
235.21071	19614
235.23193	19719
235.25314	19759
235.27437	19607
235.29559	19712
235.3168	19855
235.33803	20072
235.35924	19957
235.38046	20034
235.40167	19996
235.4229	19922
235.44411	19875
235.46532	19909
235.48654	20000
235.50775	20009
235.52898	20111
235.55019	20102
235.5714	20136
235.59262	20058
235.61383	19993
235.63504	20087
235.65627	20178
235.67747	20319
235.69868	20352
235.71989	20330
235.74112	20288
235.76233	20193
235.78354	20229
235.80475	20445
235.82596	20564
235.84718	20626
235.86839	20663
235.8896	20690
235.91081	20556
235.93202	20684
235.95323	20720
235.97444	20723
235.99565	20844
236.01686	20791
236.03807	20696
236.05928	20702
236.08049	20673
236.1017	20707
236.12291	20638
236.14412	20593
236.16533	20495
236.18654	20620
236.20775	20773
236.22896	20759
236.25017	20814
236.27136	20781
236.29257	20876
236.31378	21032
236.33499	21186
236.3562	21081
236.3774	21121
236.39861	21133
236.41982	21181
236.44102	21188
236.46222	21208
236.48343	21241
236.50464	21263
236.52583	21244
236.54704	21067
236.56825	21144
236.58945	21156
236.61066	21240
236.63187	21227
236.65306	21231
236.67427	21375
236.69547	21277
236.71667	21230
236.73787	21173
236.75908	21233
236.78027	21293
236.80148	21322
236.82268	21362
236.84389	21413
236.86508	21373
236.88629	21337
236.90749	21337
236.92868	21353
236.94989	21283
236.97108	21392
236.99228	21561
237.01349	21593
237.03468	21591
237.05588	21581
237.07709	21565
237.09828	21652
237.11948	21728
237.14067	21757
237.16187	21766
237.18307	21686
237.20427	21672
237.22546	21682
237.24666	21741
237.26785	21801
237.28905	21944
237.31024	21905
237.33145	21996
237.35265	22015
237.37384	22166
237.39503	22090
237.41623	22157
237.43742	22164
237.45862	22182
237.47981	22237
237.50101	22225
237.5222	22296
237.5434	22326
237.56458	22340
237.58577	22259
237.60696	22307
237.62816	22284
237.64935	22316
237.67055	22544
237.69174	22588
237.71292	22518
237.73412	22572
237.75531	22686
237.7765	22731
237.7977	22736
237.81888	22745
237.84007	22752
237.86127	22831
237.88245	22746
237.90364	22701
237.92484	22697
237.94601	22729
237.96721	22703
237.9884	22658
238.00958	22788
238.03078	22918
238.05196	22964
238.07315	23026
238.09433	23054
238.11552	23048
238.1367	23003
238.1579	22875
238.17908	22760
238.20027	22882
238.22145	22834
238.24265	22848
238.26382	22985
238.285	23046
238.3062	23134
238.32738	23126
238.34857	23233
238.36975	23280
238.39093	23242
238.41211	23323
238.4333	23392
238.45448	23561
238.47566	23580
238.49686	23488
238.51804	23500
238.53922	23657
238.56039	23771
238.58157	23895
238.60275	23917
238.62395	23936
238.64513	23870
238.66631	23719
238.68748	23706
238.70866	23685
238.72984	23719
238.75102	23654
238.7722	23776
238.79338	23844
238.81456	24044
238.83574	24112
238.85692	23995
238.8781	24129
238.89928	24249
238.92046	24321
238.94164	24280
238.96281	24320
238.98399	24423
239.00516	24529
239.02634	24407
239.04752	24412
239.0687	24377
239.08987	24348
239.11105	24360
239.13222	24507
239.1534	24532
239.17458	24602
239.19576	24689
239.21692	24625
239.2381	24720
239.25928	24867
239.28044	24881
239.30162	24966
239.3228	24958
239.34396	24984
239.36514	24901
239.38631	24983
239.40749	24990
239.42865	25128
239.44983	25203
239.47099	25240
239.49217	25410
239.51334	25381
239.53452	25333
239.55568	25203
239.57686	25225
239.59802	25251
239.6192	25338
239.64037	25494
239.66153	25583
239.68271	25600
239.70387	25593
239.72504	25723
239.74622	25772
239.76738	25771
239.78854	25908
239.80972	25908
239.83089	25866
239.85205	25974
239.87321	26016
239.89438	25957
239.91556	25778
239.93672	25678
239.95789	25802
239.97905	26018
240.00021	26047
240.02138	26200
240.04254	26154
240.06372	26057
240.08488	26153
240.10605	26257
240.12721	26477
240.14838	26580
240.16954	26730
240.1907	26713
240.21187	26723
240.23303	26795
240.25418	26834
240.27534	26943
240.29651	26929
240.31767	26982
240.33884	27019
240.36	26985
240.38116	26981
240.40233	27058
240.42348	27004
240.44464	26928
240.46581	27045
240.48697	27065
240.50812	27095
240.52928	27108
240.55045	27194
240.57161	27200
240.59276	27218
240.61392	27230
240.63509	27459
240.65623	27541
240.6774	27564
240.69855	27507
240.71971	27622
240.74088	27769
240.76202	27778
240.78319	27622
240.80434	27556
240.8255	27630
240.84665	27659
240.86781	27577
240.88896	27421
240.91013	27538
240.93127	27586
240.95242	27598
240.97359	27446
240.99474	27562
241.01588	27536
241.03705	27434
241.0582	27462
241.07935	27570
241.10051	27675
241.12166	27802
241.14281	27870
241.16397	27865
241.18512	27792
241.20627	27690
241.22742	27746
241.24857	27725
241.26973	27796
241.29088	27807
241.31203	27836
241.33318	27896
241.35432	27785
241.37547	27812
241.39662	27833
241.41777	27957
241.43892	28133
241.46007	28190
241.48122	28305
241.50237	28348
241.52351	28294
241.54466	28243
241.56581	28309
241.58696	28538
241.60811	28746
241.62926	28792
241.65041	28767
241.67155	28950
241.6927	29059
241.71384	29086
241.73499	29131
241.75613	29155
241.77728	29182
241.79843	29046
241.81956	29124
241.84071	29107
241.86186	29184
241.88301	29061
241.90414	28883
241.92529	28973
241.94644	28977
241.96758	29178
241.98872	29286
242.00986	29473
242.03101	29445
242.05215	29378
242.07329	29575
242.09444	29825
242.11557	29710
242.13672	29726
242.15785	29851
242.179	30046
242.20013	30049
242.22128	29988
242.24242	29993
242.26357	30152
242.2847	30296
242.30583	30154
242.32698	30157
242.34811	30283
242.36925	30378
242.3904	30470
242.41153	30568
242.43266	30571
242.45381	30554
242.47495	30492
242.49608	30488
242.51721	30463
242.53835	30366
242.55949	30552
242.58063	30685
242.60176	30731
242.62289	30678
242.64403	30758
242.66516	30636
242.68629	30655
242.70744	30733
242.72858	30958
242.74971	31173
242.77084	31325
242.79198	31186
242.81311	31075
242.83424	31083
242.85538	31202
242.87651	31278
242.89763	31493
242.91876	31462
242.9399	31501
242.96103	31450
242.98216	31390
243.0033	31375
243.02443	31372
243.04556	31463
243.06668	31522
243.08781	31737
243.10895	31735
243.13008	31979
243.1512	31860
243.17233	31912
243.19347	31915
243.2146	31977
243.23572	31975
243.25685	32011
243.27797	32143
243.2991	32149
243.32024	32209
243.34135	32171
243.36249	32213
243.38361	32178
243.40474	32330
243.42587	32363
243.44699	32484
243.46812	32519
243.48924	32377
243.51036	32472
243.53149	32385
243.55261	32550
243.57375	32592
243.59486	32530
243.616	32351
243.63712	32630
243.65823	32548
243.67937	32542
243.70049	32545
243.7216	32474
243.74272	32623
243.76385	32617
243.78497	32789
243.80609	32976
243.82721	32979
243.84834	32984
243.86946	32759
243.89058	32530
243.9117	32427
243.93282	32271
243.95393	32351
243.97505	32378
243.99619	32339
244.0173	32282
244.03842	32637
244.05954	32604
244.08066	32734
244.10178	32677
244.12289	32838
244.14401	32577
244.16513	32835
244.18625	32992
244.20735	33354
244.22847	33462
244.24959	33335
244.27071	33376
244.29182	33443
244.31294	33557
244.33406	33742
244.35516	33601
244.37628	33638
244.3974	33629
244.41852	33487
244.43964	33575
244.46074	33687
244.48186	33707
244.50298	33851
244.52408	34059
244.5452	34214
244.56631	34160
244.58742	34177
244.60854	34100
244.62964	34221
244.65076	34424
244.67188	34779
244.69298	34782
244.7141	34805
244.7352	34796
244.75632	34889
244.77742	34802
244.79854	34760
244.81964	34786
244.84074	34841
244.86186	34910
244.88297	34729
244.90408	34965
244.92519	34816
244.94629	34936
244.96741	35159
244.98851	35107
245.00961	35109
245.03073	35331
245.05183	34981
245.07294	35156
245.09404	35052
245.11516	34976
245.13626	35074
245.15736	35440
245.17847	35527
245.19957	35862
245.22067	35586
245.24178	36015
245.26289	35951
245.284	35581
245.3051	35724
245.3262	35553
245.34731	35635
245.36841	35745
245.38951	35919
245.41061	35932
245.43172	35756
245.45282	35789
245.47392	35974
245.49503	36267
245.51611	36251
245.53722	35917
245.55832	36153
245.57942	36116
245.60052	36275
245.62163	36397
245.64272	36307
245.66382	36222
245.68492	36268
245.70602	36358
245.72711	36292
245.74821	36531
245.76932	36589
245.79042	36526
245.81151	36836
245.83261	36681
245.85371	37003
245.8748	36901
245.8959	37293
245.91699	37119
245.9381	37236
245.95918	37260
245.98029	37230
246.00137	37420
246.02248	37311
246.04356	37705
246.06467	37440
246.08575	37774
246.10686	37762
246.12794	37816
246.14905	37808
246.17014	37997
246.19122	37820
246.21233	38013
246.23341	37797
246.2545	37897
246.2756	37976
246.29669	37980
246.31778	37977
246.33887	38113
246.35997	38113
246.38106	38517
246.40215	38317
246.42323	38540
246.44432	38761
246.46542	38400
246.48651	38879
246.5076	38590
246.52869	39036
246.54977	39114
246.57086	39126
246.59195	39277
246.61304	39404
246.63412	39316
246.65521	39512
246.6763	39381
246.69739	38755
246.71848	37077
