Date and Time:                Mon Apr 25 12:56:54.000 2022
Software Version:             4.31.30023.0
Temperature (C):              -40
Model:                        DU940P_BU2
Data Type:                    Counts
Acquisition Mode:             Single Scan
Trigger Mode:                 Internal
Exposure Time (secs):         0.12
Readout Mode:                 Full Vertical Binning
Horizontal binning:           1
Extended Dynamic Range:       off
Horizontally flipped:         false
Vertical Shift Speed (usecs): 14.51
Pixel Readout Rate (MHz):     3
Baseline Clamp:               ON
Clock Amplitude:              Normal
Output Amplifier:             High Capacity
Serial Number:                23634
Pre-Amplifier Gain:           1.000000
Spurious Noise Filter Mode:   No Filter
Photon counted:               false
Data Averaging Filter Mode:   No Filter
SR500i:
Serial Number:                
Wavelength (nm):              397
Grating Groove Density (l/mm):2400
Grating Blaze:                BH
Output Flipper Port:          Direct
Accessory Output Port 1:      Off
Accessory Output Port 2:      Off
Accessory Output Port 3:      Off
Accessory Input Port:         On



388.1459	39114
388.15466	37964
388.16342	38362
388.17215	38592
388.18091	38506
388.18967	38846
388.19843	38500
388.20715	38570
388.21591	38608
388.22467	38600
388.2334	38731
388.24216	38815
388.25092	38589
388.25967	38696
388.2684	38593
388.27716	38597
388.28592	38429
388.29465	38621
388.30341	38730
388.31216	38670
388.32089	38520
388.32965	38496
388.33838	38482
388.34714	38538
388.3559	38176
388.36462	38094
388.37338	38204
388.38214	37745
388.39087	37751
388.39963	37946
388.40836	38093
388.41711	38124
388.42587	38209
388.4346	38422
388.44336	38118
388.45209	38036
388.46085	37871
388.46957	37978
388.47833	38030
388.48706	38310
388.49582	38066
388.50455	38308
388.51331	38220
388.52203	38326
388.53079	38366
388.53952	38434
388.54828	38131
388.55701	38093
388.56577	38213
388.57449	38287
388.58325	38240
388.59198	38423
388.60074	38297
388.60947	38361
388.61823	38262
388.62695	38253
388.63571	38186
388.64444	38042
388.65317	38266
388.66193	38610
388.67065	38423
388.67941	38160
388.68814	38299
388.69687	38514
388.70563	38215
388.71436	38155
388.72311	38374
388.73184	38462
388.74057	38134
388.74933	38255
388.75806	38504
388.76678	38277
388.77554	38117
388.78427	37897
388.793	38241
388.80176	38152
388.81049	38039
388.81921	38025
388.82797	37973
388.8367	37885
388.84543	37849
388.85416	37533
388.86292	37784
388.87164	37513
388.88037	37607
388.88913	37739
388.89786	37747
388.90659	37828
388.91531	37576
388.92407	37811
388.9328	37850
388.94153	37574
388.95026	37935
388.95898	38015
388.96774	37927
388.97647	37944
388.9852	38002
388.99393	38001
389.00266	38054
389.01141	37883
389.02014	38114
389.02887	38040
389.0376	38003
389.04633	37938
389.05505	38045
389.06378	37726
389.07254	37720
389.08127	37839
389.09	37961
389.09872	37875
389.10745	38173
389.11618	38459
389.12491	38356
389.13364	38251
389.14236	38051
389.15112	38129
389.15985	38391
389.16858	38104
389.17731	38452
389.18604	38656
389.19476	38455
389.20349	38378
389.21222	38507
389.22095	38342
389.22968	38080
389.2384	38326
389.24713	38325
389.25586	38316
389.26459	38019
389.27332	38317
389.28204	38242
389.29077	38291
389.2995	38264
389.30823	38199
389.31696	38400
389.32568	38181
389.33441	38110
389.34314	38082
389.35187	38035
389.3606	38053
389.36932	38160
389.37802	38286
389.38675	38217
389.39548	38483
389.40421	38321
389.41293	38271
389.42166	38319
389.43039	38168
389.43912	38032
389.44785	38157
389.45654	38017
389.46527	38126
389.474	38047
389.48273	37919
389.49146	37835
389.50018	38026
389.50891	38197
389.51761	38015
389.52634	37929
389.53506	37996
389.54379	38201
389.55252	38464
389.56122	38335
389.56995	38773
389.57867	38487
389.5874	38752
389.59613	38399
389.60483	38576
389.61356	38671
389.62228	38425
389.63101	38672
389.63971	38494
389.64844	38521
389.65717	38241
389.66586	38354
389.67459	38351
389.68332	38129
389.69205	38488
389.70074	38688
389.70947	38701
389.7182	38631
389.7269	38494
389.73563	38338
389.74435	38613
389.75305	38606
389.76178	38935
389.77051	39148
389.77921	39024
389.78793	39006
389.79666	39007
389.80536	39044
389.81409	38863
389.82278	38896
389.83151	39046
389.84024	39118
389.84894	38845
389.85767	38860
389.86636	39106
389.87509	38753
389.88382	38607
389.89252	38814
389.90125	38623
389.90994	38644
389.91867	38815
389.92737	38520
389.9361	38762
389.94479	38465
389.95352	38583
389.96222	38633
389.97095	38969
389.97964	38878
389.98837	39033
389.99707	38967
390.0058	39045
390.0145	38807
390.02322	38877
390.03192	38945
390.04065	38782
390.04935	38734
390.05807	38736
390.06677	38602
390.0755	38396
390.0842	38789
390.0929	38821
390.10162	38550
390.11032	38670
390.11905	38641
390.12775	38694
390.13644	38659
390.14517	38605
390.15387	38863
390.1626	39020
390.1713	38832
390.17999	38982
390.18872	38997
390.19742	38919
390.20612	38841
390.21484	38594
390.22354	39090
390.23224	38552
390.24097	38696
390.24966	38745
390.25836	38757
390.26709	38728
390.27579	38593
390.28448	38929
390.29318	39107
390.30191	39154
390.31061	38965
390.31931	38943
390.32803	38999
390.33673	38901
390.34543	38978
390.35413	39083
390.36285	38973
390.37155	39281
390.38025	39186
390.38895	39153
390.39764	39252
390.40637	39078
390.41507	39303
390.42377	39327
390.43246	39236
390.44116	38962
390.44989	39293
390.45859	39076
390.46729	39067
390.47598	39060
390.48468	38879
390.49338	38691
390.50208	38745
390.5108	38814
390.5195	38885
390.5282	39151
390.5369	38945
390.54559	39315
390.55429	39066
390.56299	39266
390.57169	39231
390.58038	39389
390.58908	39246
390.59781	39293
390.60651	39423
390.6152	39480
390.6239	39303
390.6326	39293
390.6413	39281
390.64999	39216
390.65869	39048
390.66739	39161
390.67609	39426
390.68478	39286
390.69348	38944
390.70218	38878
390.71088	39044
390.71957	39105
390.72827	38671
390.73697	39040
390.74567	38932
390.75436	38888
390.76306	38704
390.77176	38841
390.78046	38916
390.78912	38960
390.79782	38706
390.80652	39234
390.81522	38910
390.82391	38950
390.83261	38822
390.84131	39075
390.85001	38829
390.8587	38895
390.8674	38827
390.87607	38960
390.88477	38790
390.89346	38958
390.90216	39180
390.91086	38958
390.91956	38927
390.92825	39001
390.93692	38989
390.94562	39055
390.95432	38939
390.96301	39047
390.97171	39218
390.98038	38798
390.98907	39039
390.99777	38946
391.00647	39101
391.01517	38933
391.02383	39176
391.03253	38934
391.04123	39047
391.04993	38806
391.05859	38562
391.06729	39091
391.07599	38896
391.08469	38845
391.09335	38992
391.10205	38930
391.11075	38918
391.11942	38897
391.12811	39147
391.13681	39104
391.14548	38939
391.15417	38917
391.16287	39001
391.17154	39020
391.18024	38864
391.18893	38817
391.1976	38860
391.2063	38861
391.215	38613
391.22366	38520
391.23236	38494
391.24106	38612
391.24973	38181
391.25842	38596
391.26709	38407
391.27579	38551
391.28448	38458
391.29315	38452
391.30185	38424
391.31052	38220
391.31921	38350
391.32788	38540
391.33658	38601
391.34525	38646
391.35394	38651
391.36261	38874
391.37131	38506
391.38	38458
391.38867	38394
391.39737	38497
391.40604	38472
391.41473	38186
391.4234	38371
391.43207	38432
391.44077	38170
391.44943	38132
391.45813	38170
391.4668	38342
391.47549	38338
391.48416	38814
391.49286	38762
391.50153	38602
391.51019	38445
391.51889	38550
391.52756	38626
391.53625	38637
391.54492	38610
391.55359	38755
391.56229	38675
391.57095	38715
391.57965	38590
391.58832	38604
391.59698	38718
391.60568	38386
391.61435	38714
391.62302	38899
391.63171	38796
391.64038	38519
391.64905	38590
391.65775	38783
391.66641	38767
391.67508	38592
391.68378	38698
391.69244	38718
391.70111	38335
391.70978	38336
391.71848	38543
391.72714	38425
391.73581	38661
391.74451	38634
391.75317	38870
391.76184	38778
391.77051	38864
391.77917	38717
391.78787	38727
391.79654	38649
391.80521	38473
391.81387	38737
391.82257	38477
391.83124	38483
391.8399	38382
391.84857	38559
391.85724	38648
391.86591	38447
391.8746	38560
391.88327	38628
391.89194	38623
391.9006	38583
391.90927	38712
391.91794	39050
391.92661	39150
391.9353	39037
391.94397	39203
391.95264	39205
391.9613	38927
391.96997	39003
391.97864	39066
391.9873	38944
391.99597	39060
392.00464	39076
392.01331	39147
392.02197	39026
392.03064	38918
392.03931	39011
392.04797	38885
392.05664	38978
392.06534	39060
392.07401	39265
392.08267	39188
392.09134	39187
392.10001	38753
392.10867	39201
392.11734	39220
392.12598	39404
392.13464	39518
392.14331	39680
392.15198	39682
392.16064	39483
392.16931	39429
392.17798	39520
392.18665	39659
392.19531	39359
392.20398	39574
392.21265	39546
392.22131	39420
392.22998	39329
392.23865	39334
392.24731	39346
392.25595	39057
392.26462	39020
392.27328	38925
392.28195	39062
392.29062	39141
392.29929	39030
392.30795	39091
392.31659	39257
392.32526	39172
392.33392	39599
392.34259	39533
392.35126	39391
392.35992	39354
392.36856	39443
392.37723	39583
392.38589	39296
392.39456	39147
392.40323	39447
392.41187	39346
392.42053	39138
392.4292	38990
392.43787	39136
392.4465	39095
392.45517	39278
392.46384	39092
392.4725	39224
392.48114	39240
392.48981	39180
392.49847	39207
392.50711	39275
392.51578	39302
392.52444	39389
392.53308	39388
392.54175	39507
392.55042	39467
392.55905	39336
392.56772	39155
392.57639	39408
392.58502	38980
392.59369	39179
392.60236	39265
392.61099	39315
392.61966	39245
392.62833	38888
392.63696	39116
392.64563	39496
392.65427	39222
392.66293	39422
392.6716	39723
392.68024	39420
392.6889	39256
392.69754	39172
392.70621	39495
392.71484	39466
392.72351	39499
392.73215	39592
392.74081	39656
392.74948	39796
392.75812	39459
392.76678	39755
392.77542	39789
392.78409	39736
392.79272	39689
392.80139	39660
392.81003	39633
392.8187	39443
392.82733	39402
392.83597	39544
392.84464	39347
392.85327	39018
392.86194	39024
392.87057	39242
392.87924	39390
392.88788	39421
392.89655	39598
392.90518	39468
392.91382	39643
392.92249	39356
392.93112	39716
392.93979	39682
392.94843	39442
392.95706	39417
392.96573	39618
392.97437	39615
392.983	39645
392.99167	39491
393.00031	39571
393.00894	39350
393.01761	39249
393.02625	39225
393.03488	39249
393.04355	39164
393.05219	39024
393.06082	38972
393.06949	39105
393.07813	39151
393.08676	38814
393.09543	38946
393.10406	39060
393.1127	38981
393.12134	38815
393.13	39033
393.13864	39209
393.14728	39177
393.15591	39103
393.16455	39237
393.17322	39030
393.18185	38938
393.19049	38961
393.19913	39106
393.20779	39115
393.21643	38944
393.22507	38856
393.2337	39312
393.24234	39166
393.25098	39330
393.25964	39135
393.26828	39184
393.27692	39059
393.28555	39011
393.29419	39089
393.30283	39132
393.31146	39051
393.3201	38916
393.32877	39084
393.3374	39066
393.34604	39058
393.35468	38977
393.36331	39138
393.37195	39162
393.38058	38974
393.38922	39123
393.39786	39074
393.40649	39170
393.41513	39139
393.42377	39165
393.4324	39287
393.44104	39352
393.44968	39250
393.45831	39171
393.46695	39291
393.47559	39186
393.48422	39165
393.49286	39352
393.5015	39374
393.51013	39161
393.51877	39185
393.5274	39415
393.53604	39629
393.54468	39278
393.55331	39547
393.56195	39417
393.57059	39392
393.57922	39233
393.58786	39478
393.5965	39316
393.60513	39398
393.61374	39396
393.62238	39479
393.63101	39518
393.63965	39358
393.64828	39114
393.65692	39204
393.66556	39259
393.67419	39378
393.6828	39429
393.69144	39473
393.70007	39838
393.70871	39492
393.71735	39616
393.72598	39687
393.73459	39892
393.74323	39783
393.75186	39570
393.7605	39893
393.76913	39731
393.77774	39678
393.78638	39429
393.79501	39624
393.80365	39576
393.81226	39551
393.82089	39789
393.82953	39991
393.83817	40088
393.84677	39682
393.85541	39696
393.86404	39766
393.87265	39776
393.88129	39759
393.88992	39871
393.89853	39992
393.90717	39948
393.9158	39713
393.92444	39842
393.93304	39878
393.94168	39671
393.95029	39629
393.95892	39962
393.96756	39795
393.97617	39749
393.9848	39756
393.99344	39720
394.00204	39790
394.01068	39661
394.01929	39722
394.02792	40017
394.03656	39723
394.04517	39619
394.0538	39554
394.06241	39598
394.07104	39580
394.07965	39654
394.08829	39793
394.09689	39937
394.10553	40006
394.11417	39817
394.12277	39914
394.13141	39957
394.14001	39687
394.14865	39638
394.15726	39486
394.16589	39749
394.1745	39466
394.18314	39370
394.19174	39314
394.20035	39688
394.20898	39447
394.21759	39427
394.22623	39597
394.23483	39448
394.24347	39596
394.25208	39322
394.26071	39623
394.26932	39876
394.27792	40037
394.28656	39876
394.29517	39898
394.3038	40158
394.31241	39759
394.32101	39814
394.32965	39827
394.33826	39882
394.34686	39704
394.3555	39893
394.36411	39861
394.37271	39728
394.38135	39727
394.38995	39877
394.39856	39898
394.4072	40098
394.4158	39935
394.42441	40071
394.43304	39991
394.44165	39892
394.45026	39798
394.45886	40088
394.4675	40168
394.4761	40349
394.48471	40449
394.49332	40572
394.50195	40570
394.51056	40449
394.51917	40477
394.52777	40507
394.53641	40547
394.54501	40492
394.55362	40479
394.56223	40324
394.57083	40384
394.57944	40284
394.58807	40091
394.59668	40237
394.60529	39824
394.61389	39943
394.6225	39999
394.6311	40122
394.63974	40209
394.64835	40197
394.65695	40125
394.66556	40244
394.67416	40282
394.68277	40355
394.69138	40527
394.69998	40424
394.70859	40463
394.71719	40515
394.72583	40257
394.73444	40556
394.74304	40347
394.75165	40223
394.76025	40390
394.76886	40247
394.77747	40169
394.78607	40178
394.79468	40382
394.80328	40579
394.81189	40143
394.8205	40346
394.8291	40347
394.83771	40517
394.84631	40317
394.85492	40199
394.86353	40597
394.87213	40302
394.88074	40392
394.88934	40538
394.89795	40456
394.90656	40507
394.91516	40169
394.92374	40381
394.93234	40279
394.94095	40346
394.94955	40334
394.95816	40365
394.96677	40340
394.97537	40297
394.98398	40257
394.99258	40460
395.00116	40549
395.00977	40551
395.01837	40486
395.02698	40694
395.03558	40481
395.04419	40361
395.0528	40641
395.06137	40527
395.06998	40692
395.07858	40728
395.08719	40647
395.09579	40968
395.10437	40768
395.11298	40601
395.12158	40796
395.13019	40899
395.13876	40803
395.14737	40825
395.15598	40714
395.16458	40946
395.17316	40789
395.18176	40772
395.19037	40665
395.19897	40485
395.20755	40431
395.21616	40641
395.22476	40722
395.23334	40895
395.24194	40939
395.25055	40797
395.25912	41075
395.26773	41163
395.27634	41011
395.28491	40908
395.29352	41034
395.30212	40983
395.3107	41173
395.31931	40863
395.32791	41302
395.33649	41114
395.34509	41068
395.35367	40907
395.36227	41016
395.37088	40988
395.37946	40773
395.38806	40963
395.39664	41027
395.40524	40918
395.41382	40685
395.42242	40500
395.431	40778
395.43961	40314
395.44821	40473
395.45679	40376
395.46539	40456
395.47397	40297
395.48257	40444
395.49115	40517
395.49976	40476
395.50833	40404
395.51694	40440
395.52551	40404
395.53409	40706
395.54269	40695
395.55127	40541
395.55988	40591
395.56845	40647
395.57706	40781
395.58563	40810
395.59424	40953
395.60281	40660
395.61139	40836
395.62	40632
395.62857	40727
395.63718	40734
395.64575	40462
395.65433	40644
395.66293	40807
395.67151	40572
395.68008	40751
395.68869	40737
395.69727	41094
395.70584	41014
395.71445	41074
395.72302	41003
395.7316	41003
395.7402	40796
395.74878	41074
395.75735	41083
395.76596	41202
395.77454	41348
395.78311	41022
395.79169	41359
395.80029	41257
395.80887	41319
395.81744	41250
395.82602	41465
395.83463	41260
395.8432	41219
395.85178	41224
395.86035	41276
395.86893	41367
395.87753	41266
395.88611	41459
395.89468	41462
395.90326	41534
395.91183	41110
395.92044	41209
395.92902	41370
395.93759	41415
395.94617	41315
395.95474	41757
395.96332	41841
395.97192	41518
395.9805	41414
395.98907	41206
395.99765	41089
396.00623	41257
396.0148	41288
396.02338	41263
396.03195	41498
396.04053	41403
396.0491	41372
396.05768	41391
396.06628	41562
396.07486	41476
396.08344	41630
396.09201	41577
396.10059	41582
396.10916	41637
396.11774	41393
396.12631	41339
396.13489	41538
396.14346	41140
396.15204	41318
396.16061	41571
396.16919	41846
396.17776	41898
396.18634	41679
396.19492	41632
396.20349	41764
396.21207	41876
396.22061	41763
396.22919	41902
396.23776	41961
396.24634	42072
396.25491	41875
396.26349	42172
396.27206	41812
396.28064	41911
396.28922	41851
396.29779	41948
396.30637	41664
396.31491	41747
396.32349	41697
396.33206	41813
396.34064	41812
396.34921	41846
396.35779	41830
396.36636	41815
396.37491	41714
396.38348	41529
396.39206	41487
396.40063	41344
396.40921	41635
396.41776	41597
396.42633	41767
396.43491	41898
396.44348	41729
396.45203	42007
396.4606	41725
396.46918	41746
396.47775	41649
396.4863	41838
396.49487	41427
396.50345	41666
396.51202	41503
396.52057	41426
396.52914	41509
396.53772	41586
396.54626	41352
396.55484	41401
396.56342	41453
396.57199	41389
396.58054	41337
396.58911	41310
396.59766	41570
396.60623	41542
396.61481	41725
396.62335	41724
396.63193	41680
396.6405	41605
396.64905	41473
396.65762	41541
396.66617	41616
396.67474	41633
396.68332	41648
396.69186	41357
396.70044	41599
396.70898	41645
396.71756	41624
396.72614	41555
396.73468	41773
396.74326	41764
396.7518	41709
396.76038	41791
396.76892	41584
396.7775	41813
396.78604	41569
396.79462	41714
396.80316	41950
396.81174	41992
396.82028	42019
396.82886	42083
396.8374	42162
396.84598	42175
396.85452	42033
396.8631	42243
396.87164	41944
396.88019	42196
396.88876	41809
396.89731	41980
396.90588	42029
396.91443	41886
396.92297	41689
396.93155	41778
396.94009	41810
396.94867	41748
396.95721	41903
396.96576	41857
396.97433	41913
396.98288	42029
396.99142	42099
397	41149
397.00854	41348
397.01709	42515
397.02567	42037
397.03421	42156
397.04276	42113
397.05133	42237
397.05988	42118
397.06842	42012
397.077	42092
397.08554	42196
397.09409	41922
397.10263	42031
397.11121	41947
397.11975	42039
397.1283	41913
397.13684	42185
397.14542	42247
397.15396	42207
397.16251	42055
397.17105	42146
397.17963	42242
397.18817	42240
397.19672	42348
397.20526	42363
397.21381	42287
397.22235	42368
397.23093	42183
397.23947	42267
397.24802	42086
397.25656	41947
397.26511	42352
397.27365	42014
397.28223	42224
397.29077	42321
397.29932	42284
397.30786	42131
397.31641	42496
397.32495	42170
397.3335	42632
397.34204	42474
397.35059	42117
397.35913	42569
397.36768	42391
397.37622	42390
397.3848	42332
397.39334	42487
397.40189	42735
397.41043	42650
397.41898	42795
397.42752	42475
397.43607	42609
397.44461	42707
397.45316	42398
397.4617	42584
397.47025	42913
397.47879	42542
397.48734	42562
397.49588	42525
397.50439	42522
397.51294	42523
397.52148	42178
397.53003	42383
397.53857	42319
397.54712	42319
397.55566	42543
397.56421	42494
397.57275	42522
397.5813	42740
397.58984	42747
397.59839	42646
397.6069	42704
397.61545	42557
397.62399	42543
397.63254	42860
397.64108	42725
397.64963	42642
397.65817	42537
397.66669	42384
397.67523	42433
397.68378	42182
397.69232	42036
397.70087	42610
397.70938	42263
397.71793	42360
397.72647	42638
397.73502	42324
397.74356	42492
397.75208	42158
397.76062	41995
397.76917	42454
397.77771	41815
397.78622	42011
397.79477	42165
397.80331	42211
397.81183	42223
397.82037	42078
397.82892	42015
397.83746	42171
397.84598	42131
397.85452	41962
397.86307	42141
397.87158	42125
397.88013	42098
397.88867	42290
397.89719	42188
397.90573	42523
397.91425	42308
397.92279	42491
397.93134	42345
397.93985	42425
397.94839	42157
397.95694	42053
397.96545	42186
397.974	42266
397.98251	42459
397.99106	42250
397.99957	42372
398.00812	42224
398.01666	42351
398.02518	42332
398.03372	42573
398.04224	42549
398.05078	42491
398.0593	42609
398.06784	42370
398.07635	42619
398.0849	42682
398.09341	42542
398.10196	42510
398.11047	42637
398.11902	42608
398.12753	42314
398.13608	42542
398.14459	42679
398.15314	42447
398.16165	42732
398.17017	42324
398.17871	42752
398.18723	42370
398.19577	42432
398.20428	42737
398.21283	42370
398.22134	42650
398.22986	42539
398.2384	42356
398.24692	42560
398.25543	42436
398.26398	42653
398.27249	42361
398.28104	42681
398.28955	42989
398.29807	42417
398.30661	42461
398.31512	42326
398.32364	42400
398.33215	42276
398.3407	42337
398.34921	42276
398.35773	42466
398.36627	42167
398.37479	42261
398.3833	42236
398.39182	42379
398.40036	42385
398.40887	42474
398.41739	42659
398.4259	42450
398.43445	42564
398.44296	42167
398.45148	42202
398.45999	42277
398.46851	42000
398.47705	42230
398.48557	42362
398.49408	42589
398.50259	42560
398.51111	42379
398.51965	42283
398.52817	42614
398.53668	42259
398.5452	42433
398.55371	42686
398.56223	42617
398.57074	42855
398.57925	42419
398.5878	42663
398.59631	42455
398.60483	42380
398.61334	42455
398.62186	42772
398.63037	42719
398.63889	42186
398.6474	42591
398.65591	42359
398.66443	42439
398.67294	42505
398.68146	42635
398.68997	42328
398.69849	42443
398.707	42055
398.71552	42186
398.72403	42156
398.73254	42160
398.74106	42277
398.74957	42386
398.75809	42531
398.7666	42424
398.77512	42164
398.78363	42255
398.79214	42303
398.80066	42174
398.80917	42090
398.81769	42094
398.8262	42063
398.83472	41984
398.84323	41820
398.85175	41849
398.86023	41721
398.86874	41820
398.87726	41887
398.88577	41743
398.89429	41862
398.9028	41596
398.91132	41936
398.91983	41745
398.92831	42052
398.93683	42295
398.94534	42184
398.95386	42158
398.96237	41895
398.97086	42196
398.97937	41832
398.98788	42261
398.9964	41763
399.00491	41907
399.0134	41706
399.02191	41967
399.03043	42068
399.03894	41670
399.04742	42131
399.05594	41912
399.06445	42158
399.07297	41865
399.08145	41852
399.08997	41919
399.09848	41916
399.10696	42088
399.11548	42045
399.12399	41971
399.13248	42417
399.14099	42255
399.14951	42169
399.15799	42279
399.1665	42190
399.17502	42180
399.1835	42439
399.19202	42121
399.20053	42286
399.20901	42234
399.21753	41918
399.22601	42029
399.23453	42004
399.24304	41800
399.25153	41831
399.26004	41899
399.26852	41384
399.27704	41792
399.28552	41714
399.29404	41745
399.30255	41930
399.31104	41679
399.31955	41819
399.32803	41908
399.33655	41880
399.34503	42210
399.35355	41921
399.36203	42058
399.37054	42048
399.37903	42140
399.38754	41779
399.39603	41992
399.40454	41842
399.41302	41899
399.42151	41584
399.43002	41830
399.43851	41874
399.44702	42014
399.45551	41649
399.46402	41954
399.4725	41785
399.48099	41799
399.4895	41711
399.49799	41602
399.5065	41739
399.51498	41849
399.52347	41573
399.53198	41702
399.54047	41718
399.54895	41827
399.55746	41507
399.56595	41628
399.57443	41441
399.58295	41556
399.59143	41560
399.59991	41779
399.60843	41414
399.61691	41452
399.6254	41627
399.63388	41601
399.6424	41514
399.65088	41913
399.65936	41813
399.66785	41626
399.67636	41680
399.68484	41523
399.69333	41750
399.70181	41618
399.71033	41762
399.71881	41949
399.72729	41882
399.73578	41865
399.74426	41818
399.75278	41694
399.76126	41875
399.76974	41944
399.77823	41690
399.78671	41920
399.7952	41906
399.80371	41748
399.81219	41836
399.82068	41472
399.82916	41393
399.83765	41647
399.84613	41561
399.85461	41671
399.8631	41567
399.87158	41749
399.88007	41624
399.88858	41930
399.89706	41798
399.90555	41549
399.91403	41938
399.92252	41843
399.931	41744
399.93948	41574
399.94797	41803
399.95645	41602
399.96494	41863
399.97342	41582
399.9819	41715
399.99039	41390
399.99887	41523
400.00735	41664
400.01584	41493
400.02432	41561
400.03281	41668
400.04129	41637
400.04977	41462
400.05826	41433
400.06674	41394
400.0752	40927
400.08368	41033
400.09216	41329
400.10065	41066
400.10913	41252
400.11761	40834
400.1261	41501
400.13458	41016
400.14307	41067
400.15152	40982
400.16	41040
400.16849	41096
400.17697	41204
400.18546	41058
400.19394	41323
400.20239	41121
400.21088	41134
400.21936	41182
400.22784	41278
400.23633	41131
400.24478	41236
400.25327	41352
400.26175	41148
400.27023	41166
400.27872	41089
400.28717	41022
400.29565	41217
400.30414	41019
400.31259	41152
400.32108	41269
400.32956	41271
400.33804	41165
400.3465	41367
400.35498	41172
400.36346	41246
400.37192	41271
400.3804	41615
400.38889	41287
400.39734	41377
400.40582	41486
400.41431	41279
400.42276	41344
400.43124	41234
400.43973	41391
400.44818	41375
400.45667	41249
400.46512	41473
400.4736	41374
400.48209	41234
400.49054	41348
400.49902	41300
400.50748	41285
400.51596	41224
400.52444	41313
400.5329	41290
400.54138	41190
400.54984	41297
400.55832	41219
400.56677	41334
400.57526	41343
400.58371	41414
400.59219	41383
400.60065	41378
400.60913	41293
400.61758	41070
400.62607	40969
400.63452	40918
400.64301	40677
400.65146	40944
400.65994	40797
400.6684	40870
400.67685	40770
400.68533	41099
400.69379	40864
400.70227	40918
400.71072	40852
400.71921	41082
400.72766	41010
400.73611	40760
400.7446	40993
400.75305	40798
400.76151	40812
400.76999	40960
400.77844	40637
400.78693	40683
400.79538	41144
400.80383	41096
400.81232	41143
400.82077	40851
400.82922	40964
400.83768	40829
400.84616	41012
400.85461	41027
400.86307	41109
400.87155	41340
400.88	41011
400.88846	41050
400.89691	41203
400.9054	41107
400.91385	40939
400.9223	41121
400.93076	41300
400.93924	41053
400.94769	41354
400.95615	40927
400.9646	41297
400.97305	40966
400.98154	41089
400.98999	40996
400.99844	40849
401.0069	41022
401.01535	40999
401.0238	40809
401.03229	40879
401.04074	41034
401.04919	41101
401.05765	41254
401.0661	41065
401.07455	40926
401.08301	41076
401.09146	41095
401.09995	41076
401.1084	40735
401.11685	40855
401.12531	40797
401.13376	41166
401.14221	40781
401.15067	40813
401.15912	40747
401.16757	40873
401.17603	40848
401.18448	40630
401.19293	40765
401.20139	40825
401.20984	40746
401.21829	40916
401.22675	40946
401.2352	41133
401.24365	41226
401.25211	41321
401.26056	40935
401.26901	41178
401.27747	40906
401.28592	41024
401.29437	41017
401.30283	40897
401.31128	40888
401.31973	40899
401.32816	40933
401.33661	40752
401.34506	41184
401.35352	40818
401.36197	40974
401.37042	41080
401.37888	41160
401.38733	40921
401.39575	41021
401.40421	40949
401.41266	40907
401.42111	41155
401.42957	41351
401.43802	41337
401.44644	41465
401.4549	41369
401.46335	41713
401.4718	41230
401.48026	41689
401.48868	41299
401.49713	41408
401.50558	41276
401.51404	41352
401.52246	41126
401.53091	41268
401.53937	41121
401.54782	41075
401.55624	40905
401.5647	40875
401.57315	41107
401.58157	41012
401.59003	41026
401.59848	41338
401.60693	41292
401.61536	41119
401.62381	41416
401.63226	41215
401.64069	41277
401.64914	41501
401.65756	41268
401.66602	41472
401.67447	41245
401.68289	41386
401.69135	41086
401.6998	41232
401.70822	41207
401.71667	41331
401.7251	41113
401.73355	41078
401.74197	41341
401.75043	41012
401.75888	41440
401.7673	41171
401.77576	41217
401.78418	41108
401.79263	41230
401.80106	41049
401.80951	41243
401.81793	41150
401.82639	40879
401.83481	41498
401.84326	41187
401.85168	40981
401.86014	41151
401.86856	41162
401.87701	41014
401.88544	41181
401.89386	40996
401.90231	41103
401.91074	41185
401.91919	41003
401.92761	40930
401.93607	41223
401.94449	40983
401.95291	41144
401.96136	41204
401.96979	41174
401.97821	41176
401.98666	41338
401.99509	40984
402.00354	41314
402.01196	41481
402.02039	41226
402.02884	41368
402.03726	41303
402.04568	41399
402.05414	41238
402.06256	41352
402.07098	41341
402.07941	41390
402.08786	41664
402.09628	41298
402.10471	41411
402.11316	41373
402.12158	41202
402.13	41182
402.13843	41010
402.14685	41382
402.1553	41136
402.16373	41252
402.17215	41165
402.18057	41505
402.18903	41279
402.19745	41310
402.20587	41548
402.21429	41326
402.22272	41562
402.23114	41301
402.23959	41329
402.24802	41222
402.25644	41439
402.26486	41263
402.27328	41471
402.28171	41199
402.29013	41180
402.29855	41163
402.30701	41194
402.31543	41315
402.32385	41230
402.33228	40982
402.3407	41307
402.34912	40855
402.35754	41088
402.36597	40780
402.37439	40920
402.38281	40783
402.39124	40984
402.39966	40739
402.40808	40960
402.4165	40968
402.42493	40737
402.43335	41031
402.44177	40762
402.4502	40884
402.45862	40745
402.46704	40982
402.47546	41229
402.48389	40777
402.49231	41035
402.50073	40853
402.50916	40927
402.51758	41324
402.526	40932
402.53442	41110
402.54285	40970
402.55124	41155
402.55966	40753
402.56808	40879
402.57651	40691
402.58493	40996
402.59335	40698
402.60178	40726
402.6102	40881
402.61859	41052
402.62701	41142
402.63544	41265
402.64386	40967
402.65228	41142
402.66068	41020
402.6691	41174
402.67752	41083
402.68594	41287
402.69437	41091
402.70276	41275
402.71118	40975
402.7196	41181
402.72803	41054
402.73642	41118
402.74484	41010
402.75327	41241
402.76169	41165
402.77008	40935
402.7785	41163
402.78693	41172
402.79532	41060
402.80374	41101
402.81216	41251
402.82056	40971
402.82898	41106
402.8374	41151
402.84579	40851
402.85422	41140
402.86264	41178
402.87103	41341
402.87946	41002
402.88788	41265
402.89627	41130
402.90469	41205
402.91309	40884
402.92151	40835
402.92993	40767
402.93832	40881
402.94675	40879
402.95514	40702
402.96356	41100
402.97195	40920
402.98038	40780
402.98877	40983
402.99719	41119
403.00562	40995
403.01401	41090
403.02243	41120
403.03082	40929
403.03925	40912
403.04764	40559
403.05603	40985
403.06445	40770
403.07285	40818
403.08127	40850
403.08966	40954
403.09808	40994
403.10648	40919
403.1149	40920
403.12329	40682
403.13168	40921
403.14011	41068
403.1485	41033
403.15692	41177
403.16531	41444
403.17371	40991
403.18213	41057
403.19052	41171
403.19894	41054
403.20734	41104
403.21573	41163
403.22415	41387
403.23254	41089
403.24094	41209
403.24936	41136
403.25775	41261
403.26614	40893
403.27454	41209
403.28296	40890
403.29135	41210
403.29974	41108
403.30817	40934
403.31656	40947
403.32495	41000
403.33334	41029
403.34174	41123
403.35016	40915
403.35855	41203
403.36694	41072
403.37534	40968
403.38376	40989
403.39215	40877
403.40054	40956
403.40894	40806
403.41733	40953
403.42572	40853
403.43414	40776
403.44254	40859
403.45093	40776
403.45932	40707
403.46771	40782
403.4761	40772
403.4845	41046
403.49292	40638
403.50131	40662
403.5097	40888
403.5181	40753
403.52649	41210
403.53488	41101
403.54327	40747
403.55167	40900
403.56006	40865
403.56845	40889
403.57684	40816
403.58524	40591
403.59363	40874
403.60202	40924
403.61041	40570
403.6188	40940
403.6272	40718
403.63559	40729
403.64398	40910
403.65237	40722
403.66077	40874
403.66916	40956
403.67755	40756
403.68594	40752
403.69434	40863
403.70273	40809
403.71112	40996
403.71951	41022
403.72791	41062
403.7363	41119
403.74469	41043
403.75305	41243
403.76144	41109
403.76984	41280
403.77823	40986
403.78662	41252
403.79501	41263
403.80341	40894
403.81177	41049
403.82016	40937
403.82855	40865
403.83694	40694
403.84534	40803
403.85373	40652
403.86209	40772
403.87048	40868
403.87888	40909
403.88727	41005
403.89563	40882
403.90402	40897
403.91241	41043
403.92081	40804
403.92917	41019
403.93756	40887
403.94595	41249
403.95435	40938
403.96271	40947
403.9711	40973
403.97949	41102
403.98785	41029
403.99625	40934
404.00464	40928
404.01303	40873
404.02139	40759
404.02979	40643
404.03815	41025
404.04654	40849
404.05493	40748
404.06329	40780
404.07169	40888
404.08008	40737
404.08844	41028
404.09683	40546
404.10519	40787
404.11359	40716
404.12198	40736
404.13034	40540
404.13873	40666
404.14709	40536
404.15549	40864
404.16385	40511
404.17224	40667
404.1806	40763
404.189	40391
404.19736	40739
404.20575	40714
404.21411	40514
404.2225	40601
404.23087	40852
404.23926	40860
404.24762	40840
404.25601	40584
404.26437	40698
404.27277	40884
404.28113	40792
404.28952	40721
404.29788	40876
404.30624	40909
404.31464	40792
404.323	41008
404.33139	41015
404.33975	41119
404.34811	41050
404.35651	40876
404.36487	41123
404.37326	40963
404.38162	41074
404.38998	40889
404.39838	41027
404.40674	41087
404.4151	40745
404.42349	40776
404.43185	41052
404.44022	41041
404.44861	41328
404.45697	41029
404.46533	40975
404.47369	41271
404.48209	41069
404.49045	41076
404.49881	41086
404.50717	41312
404.51556	41201
404.52393	40982
404.53229	41161
404.54065	41197
404.54904	40908
404.5574	40887
404.56577	40997
404.57413	41102
404.58249	40859
404.59088	40848
404.59924	40983
404.6076	41202
404.61597	40802
404.62433	41341
404.63269	40764
404.64105	41112
404.64944	40710
404.65781	40946
404.66617	40883
404.67453	40898
404.68289	40978
404.69125	41067
404.69962	40746
404.70798	41050
404.71634	40886
404.7247	40978
404.73306	41062
404.74142	40964
404.74982	41032
404.75818	41160
404.76654	41084
404.7749	41082
404.78326	40969
404.79163	41196
404.79999	41280
404.80835	41321
404.81671	41218
404.82507	41264
404.83344	41101
404.8418	41189
404.85013	41061
404.85849	40814
404.86685	40894
404.87521	41116
404.88358	41151
404.89194	40973
404.9003	41011
404.90866	41266
404.91702	41413
404.92538	41232
404.93375	41517
404.94211	41244
404.95044	41340
404.9588	41530
404.96716	41435
404.97552	41254
404.98389	41642
404.99225	41352
405.00058	41476
405.00894	41472
405.0173	41219
405.02567	41440
405.03403	41559
405.04236	41355
405.05072	41517
405.05908	41122
405.06744	41636
405.07581	41682
405.08414	41326
405.0925	41667
405.10086	41494
405.10922	41438
405.11755	41455
405.12592	41728
405.13428	41700
405.14261	41619
405.15097	41471
405.15933	41647
405.16766	41812
405.17603	41680
405.18439	41349
405.19272	41434
405.20108	41353
405.20944	41427
405.21777	41479
405.22614	41304
405.2345	41196
405.24283	41411
405.25119	41503
405.25952	41215
405.26788	41416
405.27625	41408
405.28458	41141
405.29294	41487
405.30127	41239
405.30963	41444
405.31799	41209
405.32632	41474
405.33469	41220
405.34302	41280
405.35138	41228
405.35971	41158
405.36807	41305
405.3764	41154
405.38477	41398
405.3931	41014
405.40146	41318
405.40979	41288
405.41815	41282
405.42648	41299
405.43484	41504
405.44318	41297
405.45151	41422
405.45987	41270
405.4682	41457
405.47656	41512
405.48489	41432
405.49323	41436
405.50159	41514
405.50992	41297
405.51828	41575
405.52661	41281
405.53494	41420
405.5433	41578
405.55164	41076
405.55997	41485
405.56833	41041
405.57666	41349
405.58499	41286
405.59335	41081
405.60168	41143
405.61002	41276
405.61838	41186
405.62671	41244
405.63504	40855
405.64337	39873
405.65173	37756
