Date and Time:                Sun Jan 29 16:16:42.000 2023
Software Version:             4.31.30023.0
Temperature (C):              -40
Model:                        DU940P_BU2
Data Type:                    Counts
Acquisition Mode:             Single Scan
Trigger Mode:                 Internal
Exposure Time (secs):         40
Readout Mode:                 Full Vertical Binning
Horizontal binning:           1
Extended Dynamic Range:       off
Horizontally flipped:         false
Vertical Shift Speed (usecs): 14.51
Pixel Readout Rate (MHz):     3
Baseline Clamp:               ON
Clock Amplitude:              Normal
Output Amplifier:             High Capacity
Serial Number:                23634
Pre-Amplifier Gain:           1.000000
Spurious Noise Filter Mode:   No Filter
Photon counted:               false
Data Averaging Filter Mode:   No Filter
SR500i:
Serial Number:                
Wavelength (nm):              310
Grating Groove Density (l/mm):1199.47
Grating Blaze:                500
Output Flipper Port:          Direct
Accessory Output Port 1:      Off
Accessory Output Port 2:      Off
Accessory Output Port 3:      Off
Accessory Input Port:         On



288.51233	7165
288.53345	6769
288.55453	6760
288.57565	6724
288.59677	6725
288.61786	6739
288.63898	6718
288.6601	6675
288.68118	6568
288.7023	6552
288.72342	6472
288.74454	6387
288.76563	6316
288.78674	6313
288.80783	6301
288.82895	6262
288.85007	6179
288.87115	6200
288.89227	6201
288.91339	6146
288.93448	6067
288.9556	6064
288.97668	6024
288.9978	6020
289.01892	5994
289.04001	5908
289.06113	5911
289.08221	5865
289.10333	5829
289.12442	5822
289.14554	5843
289.16666	5840
289.18774	5872
289.20886	5862
289.22995	5776
289.25107	5817
289.27216	5826
289.29327	5870
289.31436	5914
289.33548	5892
289.35657	5840
289.37769	5864
289.39877	5873
289.41989	5863
289.44098	5918
289.46207	5957
289.48318	5987
289.50427	5987
289.52539	5997
289.54648	5987
289.5676	6036
289.58868	6042
289.60977	6068
289.63089	6153
289.65198	6171
289.6731	6200
289.69418	6178
289.71527	6241
289.73639	6286
289.75748	6260
289.77859	6312
289.79968	6345
289.82077	6416
289.84189	6388
289.86298	6405
289.88406	6387
289.90518	6376
289.92627	6395
289.94736	6323
289.96848	6278
289.98956	6268
290.01065	6252
290.03174	6287
290.05286	6229
290.07394	6272
290.09503	6229
290.11612	6223
290.13724	6155
290.15833	6206
290.17941	6161
290.2005	6147
290.22162	6158
290.24271	6156
290.26379	6187
290.28488	6089
290.30597	6124
290.32709	6046
290.34818	5965
290.36926	5901
290.39035	5845
290.41144	5847
290.43256	5741
290.45364	5705
290.47473	5641
290.49582	5607
290.51691	5580
290.53799	5485
290.55908	5445
290.5802	5434
290.60129	5407
290.62238	5370
290.64346	5327
290.66455	5260
290.68564	5249
290.70673	5215
290.72781	5237
290.7489	5190
290.76999	5206
290.79108	5168
290.81216	5108
290.83325	5061
290.85434	5039
290.87546	4995
290.89655	4997
290.91763	4976
290.93872	4977
290.95981	4906
290.9809	4869
291.00198	4828
291.02307	4868
291.04413	4837
291.06522	4822
291.0863	4810
291.10739	4765
291.12848	4772
291.14957	4739
291.17065	4733
291.19174	4759
291.21283	4770
291.23392	4837
291.255	4830
291.27609	4865
291.29718	4877
291.31827	4925
291.33936	4882
291.36041	4853
291.3815	4902
291.40259	4928
291.42368	4981
291.44476	4981
291.46585	4987
291.48694	5012
291.508	5037
291.52908	5056
291.55017	5114
291.57126	5173
291.59235	5213
291.6134	5282
291.63449	5318
291.65558	5340
291.67667	5406
291.69775	5492
291.71881	5585
291.7399	5661
291.76099	5770
291.78207	5738
291.80313	5719
291.82422	5805
291.84531	5835
291.86639	5887
291.88745	5993
291.90854	5960
291.92963	6073
291.95068	6075
291.97177	6142
291.99286	6269
292.01392	6314
292.035	6382
292.05609	6435
292.07715	6448
292.09824	6427
292.11932	6498
292.14038	6536
292.16147	6650
292.18256	6675
292.20361	6771
292.2247	6779
292.24579	6818
292.26685	6857
292.28793	6841
292.30899	6814
292.33008	6823
292.35114	6801
292.37222	6782
292.39331	6767
292.41437	6750
292.43546	6733
292.45651	6729
292.4776	6668
292.49866	6568
292.51974	6555
292.5408	6566
292.56189	6520
292.58295	6557
292.60403	6510
292.62509	6480
292.64618	6502
292.66724	6523
292.68832	6524
292.70938	6497
292.73047	6516
292.75153	6489
292.77261	6493
292.79367	6462
292.81476	6414
292.83582	6391
292.85687	6392
292.87796	6324
292.89902	6242
292.9201	6284
292.94116	6286
292.96222	6272
292.98331	6317
293.00436	6318
293.02542	6275
293.04651	6250
293.06757	6182
293.08865	6180
293.10971	6186
293.13077	6241
293.15186	6261
293.17291	6291
293.19397	6337
293.21503	6289
293.23611	6233
293.25717	6293
293.27823	6327
293.29932	6309
293.32037	6359
293.34143	6413
293.36249	6435
293.38358	6407
293.40463	6447
293.42569	6553
293.44675	6632
293.46783	6636
293.48889	6651
293.50995	6754
293.53101	6737
293.55209	6790
293.57315	6798
293.59421	6867
293.61526	6920
293.63632	6971
293.65738	6970
293.67847	7026
293.69952	7047
293.72058	7138
293.74164	7180
293.7627	7226
293.78375	7197
293.80481	7159
293.8259	7150
293.84695	7211
293.86801	7293
293.88907	7278
293.91013	7231
293.93118	7215
293.95224	7177
293.9733	7146
293.99435	7181
294.01541	7275
294.03647	7295
294.05753	7252
294.07858	7222
294.09964	7311
294.1207	7231
294.14175	7214
294.16284	7145
294.1839	7162
294.20496	7139
294.22598	7099
294.24704	7033
294.2681	7019
294.28915	7006
294.31021	6973
294.33127	6910
294.35233	6968
294.37338	6938
294.39444	6910
294.4155	6797
294.43655	6725
294.45761	6593
294.47867	6603
294.49973	6572
294.52078	6531
294.54184	6517
294.56287	6489
294.58392	6465
294.60498	6504
294.62604	6515
294.64709	6517
294.66815	6508
294.68921	6438
294.71024	6382
294.73129	6350
294.75235	6385
294.77341	6347
294.79446	6377
294.81552	6355
294.83655	6362
294.8576	6362
294.87866	6380
294.89972	6437
294.92075	6449
294.9418	6456
294.96286	6409
294.98392	6432
295.00494	6462
295.026	6469
295.04706	6471
295.06812	6510
295.08914	6519
295.1102	6528
295.13126	6501
295.15228	6564
295.17334	6586
295.1944	6558
295.21545	6632
295.23648	6684
295.25754	6726
295.27859	6751
295.29962	6767
295.32068	6792
295.34171	6863
295.36276	6904
295.38382	6879
295.40485	6882
295.4259	6905
295.44696	6888
295.46799	6943
295.48904	6973
295.51007	7069
295.53113	7121
295.55215	7187
295.57321	7199
295.59427	7286
295.6153	7314
295.63635	7360
295.65738	7368
295.67844	7373
295.69946	7378
295.72052	7396
295.74155	7427
295.7626	7399
295.78363	7467
295.80469	7491
295.82571	7464
295.84677	7440
295.8678	7469
295.88885	7478
295.90988	7471
295.93091	7509
295.95197	7602
295.97299	7665
295.99405	7723
296.01508	7773
296.03613	7693
296.05716	7674
296.07819	7677
296.09924	7664
296.12027	7707
296.14133	7713
296.16235	7706
296.18338	7644
296.20444	7606
296.22546	7550
296.24649	7556
296.26755	7578
296.28857	7644
296.3096	7680
296.33066	7679
296.35168	7682
296.37271	7565
296.39377	7519
296.41479	7517
296.43582	7567
296.45685	7576
296.47791	7644
296.49893	7627
296.51996	7629
296.54102	7594
296.56204	7602
296.58307	7580
296.6041	7595
296.62512	7610
296.64618	7651
296.66721	7704
296.68823	7603
296.70926	7577
296.73029	7556
296.75134	7592
296.77237	7567
296.7934	7587
296.81442	7572
296.83545	7577
296.85648	7609
296.87753	7621
296.89856	7630
296.91959	7668
296.94061	7751
296.96164	7854
296.98267	7899
297.00369	7900
297.02472	7923
297.04575	7996
297.0668	7983
297.08783	8022
297.10886	7938
297.12988	8011
297.15091	8057
297.17194	8079
297.19296	8073
297.21399	8146
297.23502	8267
297.25604	8275
297.27707	8302
297.2981	8328
297.31912	8350
297.34015	8380
297.36118	8412
297.3822	8482
297.40323	8588
297.42426	8683
297.44528	8653
297.46631	8703
297.48734	8796
297.50836	8720
297.52939	8675
297.55038	8733
297.57141	8719
297.59244	8744
297.61346	8806
297.63449	8758
297.65552	8763
297.67654	8795
297.69757	8800
297.7186	8813
297.73959	8816
297.76062	8847
297.78165	8841
297.80267	8847
297.8237	8746
297.84473	8735
297.86572	8746
297.88675	8793
297.90778	8842
297.9288	8819
297.94983	8817
297.97083	8742
297.99185	8703
298.01288	8682
298.03391	8653
298.0549	8619
298.07593	8559
298.09695	8490
298.11798	8398
298.13898	8309
298.16	8286
298.18103	8226
298.20206	8160
298.22305	8095
298.24408	7977
298.26511	7991
298.2861	7933
298.30713	8027
298.32816	7956
298.34915	7817
298.37018	7876
298.3912	7888
298.4122	7918
298.43323	7849
298.45422	7829
298.47525	7813
298.49628	7775
298.51727	7735
298.5383	7674
298.55933	7691
298.58032	7683
298.60135	7608
298.62234	7556
298.64337	7635
298.66437	7605
298.68539	7645
298.70639	7600
298.72742	7596
298.74841	7621
298.76944	7636
298.79047	7524
298.81146	7479
298.83249	7488
298.85349	7480
298.87448	7553
298.89551	7600
298.9165	7691
298.93753	7649
298.95853	7597
298.97955	7561
299.00055	7647
299.02158	7759
299.04257	7729
299.0636	7817
299.08459	7884
299.10559	7889
299.12662	7882
299.14761	7976
299.16864	8068
299.18964	8099
299.21063	8122
299.23166	8199
299.25266	8242
299.27365	8268
299.29468	8255
299.31567	8328
299.33667	8428
299.3577	8477
299.37869	8564
299.39969	8630
299.42072	8722
299.44171	8872
299.46271	8848
299.4837	8906
299.50473	8979
299.52573	9024
299.54672	9017
299.56775	9129
299.58875	9232
299.60974	9284
299.63074	9330
299.65173	9285
299.67276	9356
299.69376	9332
299.71475	9457
299.73575	9534
299.75674	9572
299.77777	9569
299.79877	9589
299.81976	9581
299.84076	9607
299.86176	9625
299.88275	9665
299.90378	9728
299.92477	9727
299.94577	9707
299.96677	9708
299.98776	9681
300.00876	9714
300.02975	9666
300.05075	9637
300.07175	9626
300.09277	9739
300.11377	9715
300.13477	9696
300.15576	9586
300.17676	9500
300.19775	9445
300.21875	9378
300.23975	9307
300.26074	9246
300.28174	9132
300.30273	9149
300.32373	9184
300.34473	9158
300.36572	9101
300.38672	9028
300.40771	8965
300.42871	8907
300.44971	8931
300.4707	8946
300.4917	9011
300.5127	9124
300.53369	9006
300.55466	8904
300.57565	8875
300.59665	8883
300.61765	8870
300.63864	8849
300.65964	8857
300.68063	8836
300.70163	8746
300.72263	8655
300.74359	8543
300.76459	8525
300.78558	8541
300.80658	8540
300.82758	8599
300.84857	8667
300.86954	8649
300.89053	8586
300.91153	8560
300.93253	8526
300.95352	8572
300.97449	8568
300.99548	8630
301.01648	8671
301.03748	8618
301.05844	8591
301.07944	8565
301.10043	8590
301.12143	8545
301.1424	8546
301.16339	8556
301.18439	8563
301.20535	8520
301.22635	8528
301.24734	8499
301.26831	8531
301.28931	8522
301.3103	8525
301.33127	8524
301.35226	8568
301.37326	8652
301.39423	8584
301.41522	8567
301.43622	8645
301.45718	8679
301.47818	8703
301.49915	8723
301.52014	8799
301.54114	8750
301.5621	8739
301.5831	8705
301.60406	8611
301.62506	8649
301.64603	8585
301.66702	8610
301.68802	8700
301.70898	8721
301.72998	8759
301.75095	8729
301.77194	8717
301.79291	8687
301.8139	8684
301.83487	8717
301.85587	8692
301.87683	8697
301.8978	8597
301.91879	8584
301.93976	8546
301.96075	8540
301.98172	8535
302.00272	8581
302.02368	8568
302.04465	8603
302.06564	8470
302.08661	8405
302.1076	8375
302.12857	8428
302.14954	8441
302.17053	8467
302.1915	8447
302.21249	8419
302.23346	8372
302.25443	8300
302.27542	8345
302.29639	8264
302.31735	8214
302.33835	8162
302.35931	8171
302.38028	8060
302.40125	8056
302.42224	8032
302.44321	7959
302.46417	7927
302.48514	7853
302.50613	7728
302.5271	7708
302.54807	7706
302.56903	7667
302.59003	7663
302.61099	7659
302.63196	7652
302.65292	7683
302.67389	7692
302.69489	7675
302.71585	7670
302.73682	7670
302.75778	7708
302.77875	7707
302.79974	7670
302.82071	7659
302.84167	7734
302.86264	7715
302.88361	7685
302.90457	7695
302.92554	7677
302.9465	7702
302.96747	7681
302.98846	7699
303.00943	7726
303.0304	7763
303.05136	7751
303.07233	7828
303.09329	7813
303.11426	7937
303.13522	7924
303.15619	7995
303.17715	8024
303.19812	8109
303.21909	8112
303.24005	8154
303.26102	8166
303.28198	8255
303.30295	8292
303.32391	8380
303.34488	8426
303.36584	8472
303.38681	8499
303.40778	8628
303.42874	8715
303.44971	8765
303.47064	8898
303.49161	8974
303.51257	9029
303.53354	9048
303.5545	9156
303.57547	9214
303.59644	9424
303.6174	9531
303.63837	9601
303.6593	9684
303.68027	9792
303.70123	9825
303.7222	9942
303.74316	10001
303.76413	10119
303.78506	10139
303.80603	10231
303.827	10287
303.84796	10365
303.86893	10429
303.88986	10397
303.91083	10350
303.93179	10386
303.95276	10559
303.97369	10652
303.99466	10859
304.01563	10883
304.03656	10873
304.05753	10825
304.07849	10999
304.09946	11109
304.12039	11129
304.14136	11101
304.16232	11161
304.18326	11167
304.20422	11204
304.22519	11163
304.24612	11146
304.26709	11206
304.28806	11148
304.30899	11112
304.32996	11021
304.35089	11100
304.37186	11039
304.39282	11005
304.41376	10951
304.43472	10962
304.45566	10937
304.47662	10808
304.49756	10633
304.51852	10609
304.53949	10601
304.56042	10540
304.58139	10600
304.60233	10609
304.62329	10547
304.64423	10385
304.66519	10271
304.68613	10253
304.70709	10265
304.72803	10201
304.74899	10235
304.76993	10220
304.79086	10220
304.81183	10066
304.83276	10091
304.85373	10103
304.87466	10149
304.89563	10045
304.91656	9974
304.9375	9932
304.95847	9857
304.9794	9777
305.00037	9701
305.0213	9710
305.04224	9738
305.0632	9655
305.08414	9583
305.10507	9623
305.12604	9694
305.14697	9673
305.16791	9612
305.18887	9530
305.20981	9530
305.23074	9491
305.25171	9442
305.27264	9562
305.29358	9538
305.31451	9543
305.33548	9507
305.35641	9446
305.37735	9391
305.39828	9366
305.41925	9382
305.44019	9453
305.46112	9485
305.48206	9411
305.50299	9444
305.52396	9488
305.54489	9508
305.56583	9538
305.58676	9478
305.6077	9421
305.62866	9430
305.6496	9391
305.67053	9447
305.69147	9490
305.7124	9551
305.73334	9500
305.75427	9475
305.77521	9670
305.79617	9718
305.81711	9718
305.83804	9737
305.85898	9767
305.87991	9731
305.90085	9779
305.92178	9745
305.94272	9726
305.96365	9709
305.98459	9722
306.00552	9784
306.02646	9885
306.04739	9931
306.06833	10008
306.08926	9966
306.1102	9923
306.13113	9916
306.15207	9987
306.173	10199
306.19394	10334
306.21487	10461
306.23581	10487
306.25674	10479
306.27768	10598
306.29861	10682
306.31952	10808
306.34045	10770
306.36139	10888
306.38232	11020
306.40326	10974
306.42419	10957
306.44513	10879
306.46606	10924
306.48697	10992
306.5079	11195
306.52884	11398
306.54977	11494
306.57071	11533
306.59164	11535
306.61255	11540
306.63348	11683
306.65442	11881
306.67535	11961
306.69629	12120
306.71719	12178
306.73813	12216
306.75906	12189
306.78	12281
306.8009	12301
306.82184	12298
306.84277	12366
306.86368	12403
306.88461	12457
306.90555	12465
306.92648	12411
306.94739	12485
306.96832	12516
306.98926	12591
307.01016	12614
307.0311	12674
307.05203	12760
307.07294	12590
307.09387	12600
307.11478	12678
307.13571	12776
307.15665	12876
307.17755	12979
307.19849	13004
307.21939	13052
307.24033	13103
307.26126	13001
307.28217	12953
307.3031	12836
307.32401	12806
307.34494	12861
307.36584	12927
307.38678	12968
307.40768	12890
307.42862	12893
307.44952	12896
307.47046	12762
307.49136	12776
307.5123	12721
307.5332	12686
307.55414	12682
307.57504	12689
307.59598	12618
307.61688	12545
307.63779	12417
307.65872	12354
307.67963	12378
307.70056	12441
307.72147	12380
307.7424	12407
307.76331	12308
307.78421	12140
307.80515	12078
307.82605	12105
307.84695	12155
307.86789	12188
307.88879	12205
307.9097	12071
307.93063	11969
307.95154	11946
307.97244	11920
307.99338	11887
308.01428	11955
308.03519	11821
308.05612	11725
308.07703	11644
308.09793	11474
308.11884	11527
308.13977	11398
308.16068	11271
308.18158	11180
308.20248	11083
308.22339	10933
308.24432	10898
308.26523	10872
308.28613	10861
308.30704	10756
308.32794	10743
308.34888	10749
308.36978	10732
308.39069	10603
308.41159	10557
308.4325	10560
308.4534	10584
308.4743	10485
308.49524	10386
308.51614	10318
308.53705	10280
308.55795	10196
308.57886	10096
308.59976	10025
308.62067	10050
308.64157	10026
308.66248	9925
308.68338	9861
308.70428	9849
308.72519	9805
308.74609	9726
308.767	9714
308.7879	9728
308.80881	9752
308.82971	9698
308.85062	9666
308.87152	9649
308.89243	9560
308.91333	9590
308.93423	9507
308.95514	9441
308.97604	9356
308.99695	9308
309.01785	9261
309.03876	9182
309.05966	9170
309.08057	9109
309.10147	9033
309.12238	9096
309.14325	9064
309.16415	9134
309.18506	9066
309.20596	8981
309.22687	8999
309.24777	8936
309.26868	8916
309.28955	8989
309.31046	9123
309.33136	9175
309.35226	9252
309.37317	9297
309.39404	9397
309.41495	9378
309.43585	9372
309.45676	9282
309.47763	9298
309.49854	9261
309.51944	9362
309.54034	9374
309.56122	9421
309.58212	9446
309.60303	9427
309.62393	9529
309.64481	9587
309.66571	9681
309.68661	9772
309.70749	9820
309.72839	9821
309.7493	9775
309.77017	9909
309.79108	10082
309.81195	10143
309.83286	10066
309.85376	10227
309.87463	10290
309.89554	10324
309.91644	10284
309.93732	10295
309.95822	10424
309.9791	10466
310	10520
310.02087	10549
310.04178	10599
310.06265	10737
310.08356	10864
310.10443	11021
310.12534	11109
310.14624	11072
310.16711	11010
310.18799	10998
310.20889	10951
310.22977	11084
310.25067	11220
310.27155	11310
310.29245	11381
310.31332	11400
310.33423	11341
310.3551	11361
310.37601	11412
310.39688	11506
310.41776	11603
310.43866	11731
310.45953	11834
310.48044	11924
310.50131	11826
310.52219	11874
310.54309	12032
310.56396	12070
310.58484	12126
310.60574	12144
310.62662	12166
310.64749	12247
310.6684	12225
310.68927	12204
310.71014	12196
310.73105	12212
310.75192	12297
310.7728	12400
310.79367	12575
310.81458	12578
310.83545	12663
310.85632	12616
310.8772	12711
310.8981	12841
310.91898	12872
310.93985	12942
310.96072	12998
310.9816	13016
311.0025	13011
311.02338	13065
311.04425	13150
311.06512	13179
311.086	13242
311.10687	13225
311.12775	13231
311.14865	13272
311.16953	13264
311.1904	13170
311.21127	13224
311.23215	13283
311.25302	13434
311.2739	13492
311.29477	13439
311.31564	13333
311.33652	13332
311.35739	13391
311.3783	13493
311.39917	13580
311.42004	13599
311.44092	13647
311.46179	13776
311.48267	13771
311.50354	13724
311.52441	13703
311.54529	13548
311.56616	13562
311.58704	13436
311.60788	13321
311.62875	13300
311.64963	13319
311.6705	13205
311.69138	13314
311.71225	13306
311.73312	13374
311.754	13367
311.77487	13336
311.79575	13396
311.81662	13345
311.83746	13428
311.85834	13549
311.87921	13659
311.90009	13727
311.92096	13657
311.94183	13592
311.96271	13688
311.98355	13686
312.00443	13699
312.0253	13686
312.04617	13716
312.06705	13629
312.08789	13452
312.10876	13362
312.12964	13324
312.15051	13258
312.17136	13283
312.19223	13430
312.2131	13499
312.23395	13480
312.25482	13282
312.2757	13204
312.29657	13205
312.31741	13332
312.33829	13338
312.35916	13440
312.38	13464
312.40088	13428
312.42175	13323
312.4426	13223
312.46347	13179
312.48431	13098
312.50519	13016
312.52606	13031
312.54691	12978
312.56778	12940
312.58862	12925
312.6095	12888
312.63037	12882
312.65121	12761
312.67209	12734
312.69293	12696
312.71381	12715
312.73465	12653
312.75552	12491
312.77637	12475
312.79724	12504
312.81808	12431
312.83896	12560
312.8598	12589
312.88068	12603
312.90152	12536
312.92239	12535
312.94324	12495
312.96411	12498
312.98495	12465
313.0058	12479
313.02667	12496
313.04752	12577
313.06839	12601
313.08923	12561
313.11008	12481
313.13095	12475
313.15179	12386
313.17267	12362
313.19351	12303
313.21436	12322
313.23523	12338
313.25607	12431
313.27692	12412
313.29779	12343
313.31863	12263
313.33948	12308
313.36032	12384
313.3812	12487
313.40204	12459
313.42288	12442
313.44376	12403
313.4646	12373
313.48544	12352
313.50629	12522
313.52713	12579
313.548	12723
313.56885	12794
313.58969	12690
313.61053	12736
313.63138	12797
313.65225	12796
313.6731	12892
313.69394	12980
313.71478	12934
313.73563	12926
313.75647	12861
313.77734	12894
313.79819	12995
313.81903	12868
313.83987	12774
313.86072	12662
313.88156	12769
313.9024	12779
313.92325	12814
313.94409	12918
313.96494	12906
313.98578	12975
314.00662	12959
314.02747	13097
314.04831	13174
314.06915	12997
314.09	13021
314.11084	13149
314.13168	13097
314.15253	13094
314.17337	13067
314.19421	13086
314.21506	13016
314.2359	12897
314.25674	12788
314.27759	12794
314.29843	12774
314.31927	12855
314.34012	12764
314.36096	12807
314.38181	12708
314.40265	12603
314.42346	12444
314.44431	12397
314.46515	12438
314.48599	12315
314.50684	12330
314.52768	12286
314.54849	12186
314.56934	12098
314.59018	11997
314.61102	11978
314.63187	11904
314.65271	11857
314.67352	11787
314.69437	11830
314.71521	11691
314.73605	11643
314.75687	11550
314.77771	11537
314.79855	11543
314.81937	11549
314.84021	11536
314.86105	11512
314.8819	11402
314.90271	11230
314.92355	11156
314.9444	11178
314.96521	11215
314.98605	11155
315.0069	11077
315.02771	11098
315.04855	11144
315.0694	11115
315.09021	10951
315.11105	10920
315.13187	10898
315.15271	10820
315.17355	10731
315.19437	10728
315.21521	10665
315.23602	10654
315.25687	10565
315.27768	10462
315.29852	10466
315.31934	10506
315.34018	10534
315.36099	10566
315.38184	10470
315.40265	10334
315.42349	10358
315.44431	10366
315.46515	10395
315.48596	10393
315.50681	10332
315.52762	10252
315.54846	10237
315.56927	10254
315.59009	10180
315.61093	10199
315.63174	10238
315.65259	10130
315.6734	10176
315.69421	10202
315.71506	10254
315.73587	10240
315.75668	10244
315.77753	10271
315.79834	10243
315.81918	10183
315.84	10171
315.86081	10125
315.88162	10106
315.90247	10106
315.92328	10219
315.94409	10267
315.96494	10339
315.98575	10255
316.00656	10298
316.02737	10263
316.04822	10286
316.06903	10335
316.08984	10404
316.11066	10566
316.13147	10664
316.15231	10705
316.17313	10597
316.19394	10691
316.21475	10731
316.23557	10783
316.25641	10737
316.27722	10791
316.29803	10838
316.31885	10847
316.33966	10781
316.36047	10754
316.38129	10756
316.4021	10830
316.42291	10820
316.44376	10968
316.46457	11130
316.48538	11301
316.5062	11214
316.52701	11284
316.54782	11264
316.56863	11328
316.58945	11430
316.61026	11521
316.63107	11580
316.65189	11568
316.6727	11604
316.69351	11753
316.71432	11752
316.73514	11653
316.75595	11684
316.77676	11740
316.79758	11824
316.81839	11752
316.8392	11728
316.85999	11752
316.8808	11812
316.90161	11948
316.92242	12007
316.94324	12032
316.96405	12014
316.98486	11999
317.00568	11908
317.02646	12004
317.04727	12207
317.06808	12298
317.0889	12274
317.10971	12400
317.13052	12529
317.15131	12575
317.17212	12592
317.19293	12543
317.21375	12528
317.23453	12529
317.25534	12527
317.27615	12540
317.29697	12552
317.31775	12577
317.33856	12576
317.35938	12728
317.38019	12804
317.40097	12810
317.42178	12923
317.4426	12871
317.46338	12876
317.48419	13032
317.505	13253
317.52579	13472
317.5466	13708
317.56741	13753
317.5882	13784
317.60901	13845
317.62979	13901
317.6506	14085
317.67142	14195
317.6922	14328
317.71301	14360
317.7338	14393
317.75461	14447
317.77542	14409
317.7962	14477
317.81702	14583
317.8378	14820
317.85861	15047
317.87939	15165
317.90021	15283
317.92099	15279
317.9418	15327
317.96259	15507
317.9834	15841
318.00418	16023
318.02496	16284
318.04578	16447
318.06656	16577
318.08737	16574
318.10815	16694
318.12897	16845
318.14975	16956
318.17053	17084
318.19135	17171
318.21213	17277
318.23291	17381
318.25372	17474
318.27451	17583
318.29532	17706
318.3161	17862
318.33688	17859
318.3577	17888
318.37848	18054
318.39926	18072
318.42004	18089
318.44086	18199
318.46164	18356
318.48242	18537
318.5032	18769
318.52402	18857
318.5448	18918
318.56558	18873
318.58636	18919
318.60718	18908
318.62796	18961
318.64874	18996
318.66953	19035
318.69031	19040
318.71112	19127
318.7319	19022
318.75269	18988
318.77347	19040
318.79425	18833
318.81503	18687
318.83582	18542
318.85663	18375
318.87741	18282
318.89819	18180
318.91898	18086
318.93976	18030
318.96054	17745
318.98132	17521
319.00211	17484
319.02289	17520
319.04367	17448
319.06445	17222
319.08524	17038
319.10602	16996
319.1268	16769
319.14758	16543
319.16837	16483
319.18915	16386
319.20993	16378
319.23071	16301
319.2515	16106
319.27228	16034
319.29306	15957
319.31384	15796
319.33463	15540
319.35541	15381
319.37619	15267
319.39697	15016
319.41772	14784
319.43851	14713
319.45929	14515
319.48007	14412
319.50085	14112
319.52164	13951
319.54242	13839
319.56317	13669
319.58395	13586
319.60474	13641
319.62552	13471
319.6463	13299
319.66705	13219
319.68784	13261
319.70862	13159
319.7294	13031
319.75015	12914
319.77094	12866
319.79172	12770
319.8125	12690
319.83325	12525
319.85403	12478
319.87482	12398
319.89557	12276
319.91635	12118
319.93713	12120
319.95789	12030
319.97867	11903
319.99945	11920
320.0202	11840
320.04099	11749
320.06177	11552
320.08252	11401
320.1033	11222
320.12405	11275
320.14484	11159
320.16562	11168
320.18637	11123
320.20715	11126
320.22791	11054
320.24869	11066
320.26944	11059
320.29022	11042
320.31097	10999
320.33176	11063
320.35251	11115
320.37329	11025
320.39404	10914
320.41483	10936
320.43558	11007
320.45636	11011
320.47711	11098
320.49789	11082
320.51865	11101
320.53943	11096
320.56018	11036
320.58093	11019
320.60172	11103
320.62247	11151
320.64325	11151
320.664	11171
320.68475	11197
320.70554	11335
320.72629	11245
320.74704	11300
320.76782	11303
320.78857	11433
320.80933	11470
320.83011	11510
320.85086	11578
320.87161	11657
320.89236	11705
320.91315	11667
320.9339	11637
320.95465	11737
320.97543	11803
320.99619	11907
321.01694	12000
321.03769	11956
321.05844	11931
321.07922	11913
321.09998	12058
321.12073	12173
321.14148	12205
321.16223	12190
321.18301	12211
321.20377	12261
321.22452	12252
321.24527	12363
321.26602	12370
321.28677	12510
321.30753	12533
321.32828	12550
321.34903	12677
321.36981	12754
321.39056	12797
321.41132	12786
321.43207	12771
321.45282	12860
321.47357	12841
321.49432	12911
321.51508	12911
321.53583	12900
321.55658	12928
321.57733	13108
321.59808	13237
321.61884	13258
321.63959	13332
321.66034	13382
321.68109	13384
321.70184	14181
321.7226	13653
321.74335	13744
321.76407	13902
321.78482	14026
321.80557	14017
321.82632	14118
321.84708	14161
321.86783	14246
321.88858	14258
321.90933	14295
321.93005	14271
321.95081	14271
321.97156	14204
321.99231	14252
322.01306	14269
322.03381	14253
322.05453	14280
322.07529	14427
322.09604	14598
322.11679	14660
322.13751	14747
322.15826	14643
322.17902	14665
322.19977	14745
322.22049	14804
322.24124	14902
322.26199	14963
322.28275	15062
322.30347	15040
322.32422	15014
322.34497	15079
322.36569	14962
322.38644	14839
322.4072	14797
322.42792	14789
322.44867	14812
322.46942	14853
322.49014	14921
322.51089	14852
322.53162	14878
322.55237	14958
322.57309	14887
322.59384	14774
322.61459	14656
322.63531	14613
322.65607	14470
322.67679	14447
322.69754	14445
322.71826	14537
322.73901	14606
322.75974	14640
322.78049	14588
322.80121	14592
322.82196	14468
322.84268	14369
322.86343	14345
322.88416	14302
322.90491	14213
322.92563	14222
322.94635	14071
322.9671	13946
322.98782	13874
323.00858	13831
323.0293	13808
323.05002	13759
323.07077	13751
323.09149	13689
323.11221	13585
323.13297	13584
323.15369	13631
323.17441	13780
323.19516	13876
323.21588	13851
323.2366	13775
323.25735	13658
323.27808	13664
323.2988	13546
323.31955	13508
323.34027	13604
323.36099	13534
323.38171	13461
323.40247	13309
323.42319	13319
323.44391	13243
323.46463	13243
323.48535	13318
323.5061	13383
323.52682	13416
323.54755	13302
323.56827	13140
323.58899	13135
323.60971	13207
323.63043	13299
323.65118	13314
323.67191	13314
323.69263	13296
323.71335	13283
323.73407	13285
323.75479	13289
323.77551	13286
323.79623	13382
323.81696	13358
323.83768	13310
323.8584	13285
323.87912	13148
323.89984	13236
323.92056	13209
323.94128	13110
323.96201	13027
323.98273	12992
324.00345	12942
324.02417	13020
324.04489	12934
324.06561	12950
324.08633	13085
324.10706	12971
324.12778	13041
324.1485	13110
324.16922	13087
324.18994	13079
324.21066	13173
324.23135	13165
324.25208	13186
324.2728	13118
324.29352	13092
324.31424	13073
324.33496	13119
324.35568	13102
324.37637	13075
324.39709	13047
324.41782	13145
324.43854	13065
324.45926	12972
324.47995	12997
324.50067	12947
324.52139	12906
324.54211	12907
324.56281	12900
324.58353	12976
324.60425	12829
324.62494	12667
324.64566	12781
324.66638	12915
324.6871	12879
324.70779	12883
324.72852	12896
324.74924	12904
324.76993	12869
324.79065	12848
324.81134	12784
324.83206	12822
324.85278	12962
324.87347	12986
324.8942	12996
324.91492	12977
324.93561	13016
324.95633	13053
324.97702	12912
324.99774	13034
325.01843	13004
325.03915	13032
325.05984	12966
325.08057	13100
325.10126	13111
325.12198	13079
325.14267	13054
325.16339	13027
325.18408	12973
325.2048	13041
325.22549	13165
325.24622	13248
325.26691	13275
325.28763	13191
325.30832	13307
325.32901	13357
325.34973	13413
325.37042	13372
325.39114	13362
325.41183	13538
325.43253	13524
325.45325	13573
325.47394	13623
325.49463	13657
325.51535	13616
325.53604	13553
325.55673	13513
325.57745	13641
325.59814	13644
325.61884	13709
325.63953	13715
325.66025	13764
325.68094	13785
325.70163	13779
325.72232	13648
325.74304	13632
325.76373	13606
325.78442	13686
325.80511	13802
325.82581	13861
325.84653	13938
325.86722	13936
325.88791	13966
325.9086	14003
325.92929	14111
325.94998	14216
325.9707	14336
325.99139	14408
326.01208	14402
326.03278	14330
326.05347	14359
326.07416	14412
326.09485	14545
326.11554	14579
326.13623	14731
326.15692	14783
326.17761	14773
326.1983	14582
326.21899	14603
326.23969	14668
326.26038	14649
326.28107	14588
326.30176	14599
326.32245	14746
326.34314	14955
326.36383	14942
326.38452	14896
326.40521	14869
326.4259	14889
326.44659	14907
326.46729	14814
326.48798	14920
326.50867	15029
326.52936	15050
326.55005	15015
326.57071	14878
326.5914	14821
326.61209	14726
326.63278	14688
326.65347	14773
326.67416	14669
326.69485	14579
326.71552	14449
326.73621	14529
326.7569	14507
326.77759	14518
326.79825	14462
326.81894	14424
326.83963	14322
326.86032	14244
326.88098	14237
326.90167	14266
326.92236	14330
326.94305	14284
326.96371	14215
326.98441	14262
327.0051	14351
327.02576	14267
327.04645	14172
327.06714	14048
327.0878	13980
327.10849	13951
327.12918	13942
327.14984	13918
327.17053	13805
327.19119	13779
327.21188	13798
327.23257	13857
327.25323	13832
327.27393	14086
327.29459	13952
327.31528	13828
327.33594	13873
327.35663	13865
327.37729	14071
327.39798	14233
327.41864	14261
327.43933	14235
327.45999	14180
327.48068	14237
327.50134	14147
327.52203	14187
327.54269	14253
327.56339	14377
327.58405	14454
327.60474	14419
327.6254	14387
327.64606	14377
327.66675	14286
327.68741	14328
327.70807	14594
327.72876	14786
327.74942	14985
327.77011	14887
327.79077	14811
327.81143	14820
327.83212	14970
327.85278	15203
327.87344	15253
327.8941	15405
327.91479	15422
327.93546	15405
327.95612	15387
327.97681	15503
327.99747	15577
328.01813	15627
328.03879	15682
328.05945	15872
328.08014	15985
328.1008	15951
328.12146	16069
328.14212	16132
328.16278	16076
328.18347	16145
328.20413	16286
328.22479	16312
328.24545	16297
328.26611	16332
328.28677	16283
328.30743	16271
328.32809	16409
328.34879	16573
328.36945	16772
328.39011	16750
328.41077	16786
328.43143	16783
328.45209	16655
328.47275	16599
328.49341	16557
328.51407	16554
328.53473	16733
328.55539	16741
328.57605	16605
328.59671	16421
328.61737	16440
328.63803	16468
328.65869	16487
328.67935	16464
328.70001	16521
328.72067	16560
328.74133	16491
328.76196	16469
328.78262	16555
328.80328	16661
328.82394	16691
328.8446	16564
328.86526	16516
328.88593	16470
328.90659	16411
328.92722	16300
328.94788	16240
328.96854	16157
328.9892	16096
329.00986	16031
329.03049	15980
329.05115	15786
329.07181	15916
329.09247	15924
329.11313	15923
329.13376	15800
329.15442	15690
329.17508	15648
329.19571	15547
329.21637	15444
329.23703	15367
329.25769	15309
329.27832	15267
329.29898	15353
329.31964	15374
329.34027	15310
329.36093	15247
329.38156	15250
329.40222	15334
329.42288	15260
329.44351	15236
329.46417	15157
329.4848	14966
329.50546	14905
329.52612	14926
329.54675	14923
329.56741	14723
329.58804	14510
329.6087	14524
329.62933	14558
329.64999	14641
329.67062	14579
329.69128	14650
329.71191	14766
329.73257	14756
329.7532	14815
329.77386	14775
329.79449	14694
329.81516	14618
329.83578	14753
329.85641	14766
329.87708	14839
329.89771	14818
329.91837	14783
329.939	14752
329.95963	14672
329.98029	14630
330.00092	14646
330.02158	14726
330.04221	14810
330.06284	14806
330.0835	14752
330.10413	14669
330.12476	14660
330.14539	14652
330.16605	14695
330.18668	14728
330.20731	14696
330.22794	14622
330.2486	14587
330.26923	14574
330.28986	14719
330.31049	14696
330.33115	14715
330.35178	14787
330.37241	14723
330.39304	14752
330.41367	14775
330.43433	14772
330.45496	14813
330.47559	14850
330.49622	14803
330.51685	14774
330.53748	14833
330.55811	14832
330.57874	14864
330.59937	14861
330.62003	14861
330.64066	14935
330.66129	14881
330.68192	14996
330.70255	14872
330.72318	14866
330.7438	14818
330.76443	14849
330.78506	14858
330.80569	14831
330.82632	14948
330.84695	14920
330.86758	14913
330.88821	14848
330.90884	14728
330.92947	14740
330.9501	14711
330.9707	14745
330.99133	14616
331.01196	14611
331.03259	14656
331.05322	14642
331.07385	14665
331.09448	14625
331.11511	14651
331.13571	14547
331.15634	14520
331.17697	14478
331.1976	14451
331.21823	14378
331.23886	14274
331.25946	14052
