Date and Time:                Mon Oct 10 15:34:21.000 2022
Software Version:             4.31.30023.0
Temperature (C):              -40
Model:                        DU940P_BU2
Data Type:                    Counts
Acquisition Mode:             Single Scan
Trigger Mode:                 Internal
Exposure Time (secs):         100
Readout Mode:                 Full Vertical Binning
Horizontal binning:           1
Extended Dynamic Range:       off
Horizontally flipped:         false
Vertical Shift Speed (usecs): 14.51
Pixel Readout Rate (MHz):     3
Baseline Clamp:               ON
Clock Amplitude:              Normal
Output Amplifier:             High Capacity
Serial Number:                23634
Pre-Amplifier Gain:           1.000000
Spurious Noise Filter Mode:   No Filter
Photon counted:               false
Data Averaging Filter Mode:   No Filter
SR500i:
Serial Number:                
Wavelength (nm):              235
Grating Groove Density (l/mm):1199.47
Grating Blaze:                500
Output Flipper Port:          Direct
Accessory Output Port 1:      Off
Accessory Output Port 2:      Off
Accessory Output Port 3:      Off
Accessory Input Port:         On



213.13235	50354
213.15382	49949
213.17529	50444
213.19676	50759
213.21823	51012
213.23969	51236
213.26115	51400
213.28262	51563
213.30409	51695
213.32556	51821
213.34703	51933
213.36848	52036
213.38995	52132
213.41142	52202
213.43289	52292
213.45435	52368
213.47581	52415
213.49728	52462
213.51874	52530
213.54021	52587
213.56168	52636
213.58315	52683
213.6046	52738
213.62607	52778
213.64752	52808
213.66899	52847
213.69046	52867
213.71191	52921
213.73338	52944
213.75485	52950
213.77631	52992
213.79778	53019
213.81923	53033
213.8407	53065
213.86215	53092
213.88362	53107
213.90508	53117
213.92654	53142
213.948	53162
213.96947	53202
213.99092	53215
214.01239	53232
214.03384	53254
214.05531	53268
214.07677	53279
214.09824	53305
214.11969	53310
214.14114	53328
214.16261	53337
214.18407	53348
214.20552	53366
214.22699	53371
214.24844	53385
214.2699	53396
214.29137	53415
214.31282	53413
214.33427	53425
214.35574	53426
214.3772	53444
214.39865	53452
214.4201	53461
214.44157	53466
214.46303	53481
214.48448	53496
214.50594	53497
214.5274	53493
214.54886	53512
214.57031	53514
214.59177	53523
214.61322	53533
214.63467	53541
214.65614	53536
214.6776	53546
214.69905	53561
214.7205	53562
214.74196	53577
214.76341	53571
214.78487	53583
214.80632	53575
214.82777	53578
214.84923	53593
214.87068	53581
214.89214	53588
214.91359	53619
214.93504	53585
214.9565	53615
214.97795	53594
214.9994	53631
215.02086	53598
215.04231	53632
215.06377	53630
215.08522	53607
215.10667	53657
215.12813	53629
215.14958	53639
215.17104	53629
215.19247	53630
215.21393	53638
215.23538	53651
215.25684	53638
215.27829	53652
215.29974	53651
215.32118	53656
215.34264	53655
215.36409	53664
215.38554	53652
215.40698	53668
215.42844	53668
215.44989	53663
215.47134	53658
215.49278	53673
215.51424	53675
215.53569	53667
215.55713	53667
215.57858	53662
215.60004	53676
215.62148	53665
215.64293	53677
215.66438	53671
215.68582	53660
215.70728	53667
215.72871	53650
215.75017	53644
215.77161	53650
215.79306	53657
215.81451	53639
215.83595	53641
215.85741	53663
215.87885	53624
215.9003	53640
215.92174	53633
215.94319	53612
215.96463	53616
215.98608	53612
216.00752	53593
216.02896	53597
216.05042	53581
216.07185	53580
216.09331	53562
216.11475	53540
216.13618	53546
216.15764	53527
216.17908	53520
216.20052	53512
216.22197	53497
216.24341	53494
216.26485	53462
216.2863	53466
216.30774	53445
216.32918	53412
216.35063	53409
216.37207	53373
216.39351	53355
216.41495	53358
216.43639	53324
216.45784	53291
216.47928	53282
216.50072	53258
216.52216	53212
216.54359	53193
216.56505	53169
216.58649	53129
216.60793	53112
216.62936	53062
216.6508	53044
216.67224	53001
216.69368	52940
216.71512	52896
216.73656	52847
216.758	52783
216.77943	52713
216.80089	52604
216.82233	52499
216.84377	52407
216.8652	52301
216.88664	52163
216.90808	51952
216.9295	51742
216.95094	51450
216.97238	50992
216.99382	50291
217.01526	48998
217.0367	48348
217.05814	48153
217.07957	47952
217.10101	47840
217.12245	47778
217.14388	47613
217.16531	47456
217.18675	47256
217.20819	47109
217.22963	46822
217.25107	46592
217.27249	46265
217.29393	46124
217.31537	45862
217.33681	45949
217.35823	46154
217.37967	45961
217.40111	45989
217.42255	45943
217.44397	45908
217.46541	45828
217.48685	45745
217.50827	45030
217.52971	45320
217.55115	44849
217.57257	44620
217.59401	44246
217.61543	44465
217.63687	44296
217.65831	44073
217.67973	43835
217.70117	43847
217.7226	43527
217.74403	43426
217.76546	43426
217.7869	43504
217.80832	43699
217.82976	43999
217.85118	43861
217.87262	43315
217.89404	43675
217.91548	43348
217.9369	42736
217.95833	42708
217.97977	42466
218.00119	42354
218.02263	42398
218.04405	42066
218.06548	41901
218.08691	41747
218.10834	41496
218.12976	41686
218.1512	41728
218.17262	41733
218.19405	41907
218.21548	41295
218.23691	41443
218.25833	40785
218.27975	41007
218.30119	41043
218.32262	41212
218.34404	41333
218.36546	40943
218.38689	40865
218.40833	40834
218.42975	40823
218.45117	40513
218.4726	40254
218.49402	40297
218.51544	39889
218.53688	39655
218.5583	39389
218.57973	39215
218.60115	39344
218.62257	38853
218.644	38457
218.66542	38333
218.68684	37990
218.70827	37930
218.72969	37942
218.75111	37991
218.77254	37807
218.79396	38048
218.81538	38122
218.83681	38027
218.85823	38123
218.87965	37780
218.90108	37600
218.9225	37402
218.94391	37115
218.96533	36763
218.98676	36733
219.00818	36409
219.0296	36454
219.05103	35949
219.07245	35888
219.09386	35787
219.11528	35778
219.1367	35548
219.15813	35152
219.17955	34973
219.20096	34868
219.22238	34733
219.2438	34740
219.26523	34809
219.28664	34859
219.30806	34752
219.32948	34506
219.35089	34308
219.37231	34184
219.39374	34031
219.41515	34048
219.43657	33892
219.45798	33960
219.4794	33640
219.50082	33577
219.52223	33336
219.54366	33307
219.56506	33125
219.58649	33035
219.60789	33374
219.62932	33351
219.65074	33044
219.67215	32789
219.69357	32461
219.71498	32426
219.73639	32326
219.75781	32380
219.77922	32377
219.80064	32363
219.82205	32248
219.84348	31949
219.86488	31775
219.88629	31824
219.90771	31884
219.92912	31687
219.95053	31487
219.97195	31274
219.99336	31212
220.01477	31078
220.03619	30909
220.0576	31021
220.07901	30884
220.10043	30866
220.12184	30882
220.14325	30789
220.16466	30690
220.18608	30552
220.20749	30527
220.2289	30435
220.25031	30504
220.27171	30313
220.29314	30435
220.31454	30290
220.33595	30252
220.35736	30295
220.37877	30409
220.40018	30179
220.42159	29986
220.44299	29756
220.4644	29759
220.48581	29769
220.50723	29755
220.52864	29795
220.55005	29812
220.57146	29666
220.59286	29434
220.61427	29259
220.63568	29194
220.65709	29143
220.67848	29153
220.69989	29165
220.7213	29315
220.74271	29405
220.76411	29181
220.78552	29251
220.80693	29319
220.82834	29227
220.84975	29310
220.87115	29309
220.89255	29229
220.91396	29164
220.93536	28953
220.95677	28878
220.97818	28874
220.99957	28805
221.02098	28917
221.04239	28868
221.0638	29052
221.08519	29101
221.1066	28956
221.12801	28742
221.1494	28677
221.17081	28486
221.19221	28382
221.21361	28301
221.23502	28409
221.25642	28431
221.27782	28101
221.29922	27970
221.32063	27891
221.34203	27712
221.36343	27676
221.38483	27775
221.40623	27905
221.42763	27653
221.44904	27484
221.47043	27345
221.49184	27332
221.51323	27293
221.53464	27320
221.55603	27246
221.57744	27300
221.59883	27138
221.62024	27003
221.64163	26794
221.66304	26745
221.68443	26796
221.70583	26719
221.72723	26809
221.74863	26897
221.77002	26948
221.79143	26748
221.81282	26604
221.83421	26492
221.85562	26304
221.87701	26046
221.89841	25896
221.9198	25803
221.94121	25720
221.9626	25654
221.98399	25753
222.00539	25773
222.02679	25548
222.04819	25470
222.06958	25382
222.09097	25353
222.11237	25169
222.13376	25184
222.15517	25365
222.17656	25510
222.19795	25486
222.21935	25298
222.24074	25274
222.26213	25186
222.28352	25177
222.30492	24956
222.32631	25020
222.3477	24881
222.36909	24814
222.39049	24677
222.41188	24656
222.43327	24653
222.45467	24585
222.47606	24530
222.49745	24524
222.51884	24635
222.54024	24731
222.56163	24565
222.58302	24338
222.60442	24251
222.62581	24340
222.64719	24387
222.66858	24479
222.68997	24511
222.71136	24640
222.73276	24501
222.75414	24398
222.77553	24295
222.79692	24122
222.81831	24113
222.83971	24072
222.86108	24184
222.88248	23919
222.90387	23815
222.92525	23578
222.94664	23606
222.96803	23716
222.98941	23590
223.0108	23318
223.0322	23308
223.05357	23147
223.07497	23144
223.09636	23118
223.11774	22867
223.13913	22887
223.16051	22903
223.1819	23063
223.20328	23120
223.22467	23033
223.24605	22919
223.26744	22822
223.28882	22752
223.31021	22578
223.33159	22400
223.35298	22398
223.37436	22296
223.39575	22248
223.41713	22041
223.43852	22067
223.4599	22107
223.48128	22006
223.50267	21885
223.52405	21852
223.54543	21769
223.56682	22067
223.5882	21580
223.60957	21683
223.63097	21764
223.65234	21854
223.67372	21719
223.69511	21681
223.71649	21733
223.73787	21617
223.75925	21422
223.78064	21501
223.80202	21387
223.82339	21332
223.84477	21415
223.86615	21204
223.88753	21155
223.90892	21059
223.9303	20966
223.95168	21110
223.97305	21225
223.99443	21301
224.01581	21176
224.03719	21077
224.05856	20987
224.07994	20909
224.10132	20957
224.1227	21109
224.14407	21192
224.16545	21224
224.18683	21154
224.20821	21084
224.22958	20968
224.25096	20930
224.27234	20819
224.29372	20752
224.31509	20823
224.33647	20693
224.35785	20607
224.37923	20556
224.40059	20442
224.42197	20451
224.44334	20320
224.46472	20073
224.4861	20064
224.50748	20029
224.52884	20013
224.55022	19995
224.57159	19957
224.59297	19919
224.61433	19882
224.63571	19996
224.65709	20045
224.67845	19972
224.69983	19889
224.72121	19981
224.74258	19852
224.76395	19728
224.78532	19626
224.80669	19620
224.82806	19622
224.84944	19318
224.8708	19163
224.89218	19155
224.91354	19101
224.93492	19169
224.95628	19122
224.97766	19107
224.99904	19093
225.0204	18934
225.04176	18773
225.06314	18786
225.0845	18824
225.10588	18753
225.12724	18818
225.14862	18737
225.16998	18750
225.19136	18606
225.21272	18412
225.23409	18449
225.25546	18403
225.27682	18342
225.29819	18366
225.31956	18422
225.34093	18352
225.36229	18206
225.38367	18144
225.40503	18211
225.42639	18246
225.44775	18324
225.46913	18273
225.49049	18164
225.51186	18084
225.53322	18043
225.5546	18056
225.57596	18035
225.59732	18027
225.61868	18019
225.64005	17981
225.66141	18017
225.68277	17939
225.70415	17958
225.72551	17960
225.74687	18043
225.76823	17906
225.7896	17828
225.81096	17819
225.83232	17835
225.85368	17843
225.87505	17848
225.89641	17731
225.91777	17623
225.93913	17544
225.96049	17582
225.98186	17580
226.00322	17619
226.02458	17678
226.04593	17571
226.06729	17576
226.08865	17527
226.11002	17496
226.13138	17420
226.15274	17436
226.1741	17475
226.19545	17470
226.21681	17460
226.23817	17327
226.25954	17328
226.2809	17452
226.30225	17366
226.32361	17293
226.34497	17397
226.36633	17323
226.38768	17278
226.40904	17168
226.4304	16977
226.45175	16908
226.47311	16855
226.49448	16820
226.51582	16950
226.53719	16818
226.55853	16808
226.5799	16783
226.60126	16729
226.6226	16797
226.64397	16849
226.66531	16789
226.68668	16801
226.70802	16726
226.72939	16744
226.75073	16609
226.77209	16623
226.79344	16606
226.8148	16655
226.83615	16543
226.8575	16653
226.87886	16738
226.90021	16792
226.92157	16683
226.94292	16595
226.96426	16603
226.98563	16605
227.00697	16586
227.02832	16541
227.04968	16588
227.07103	16576
227.09238	16594
227.11374	16544
227.13509	16452
227.15643	16411
227.17778	16290
227.19914	16299
227.22049	16385
227.24184	16297
227.26318	16150
227.28453	16207
227.30588	16239
227.32724	16222
227.34859	16166
227.36993	16045
227.39128	16044
227.41263	15956
227.43398	15894
227.45532	15846
227.47667	15764
227.49802	15849
227.51936	15870
227.54071	15872
227.56206	15983
227.5834	15920
227.60475	15903
227.6261	15909
227.64745	15773
227.66879	15803
227.69014	15710
227.71149	15672
227.73283	15614
227.75418	15594
227.77553	15502
227.79688	15534
227.81821	15507
227.83955	15436
227.8609	15369
227.88225	15312
227.90359	15337
227.92494	15327
227.94627	15347
227.96762	15512
227.98897	15639
228.01031	15653
228.03165	15547
228.05299	15540
228.07434	15535
228.09567	15454
228.11702	15395
228.13837	15446
228.1597	15486
228.18105	15368
228.20239	15401
228.22372	15354
228.24507	15343
228.2664	15363
228.28775	15383
228.3091	15435
228.33043	15531
228.35178	15605
228.37311	15535
228.39445	15462
228.41579	15424
228.43713	15449
228.45847	15598
228.47981	15593
228.50114	15769
228.52248	15758
228.54382	15659
228.56516	15653
228.5865	15611
228.60783	15644
228.62917	15640
228.65051	15651
228.67184	15671
228.69318	15613
228.71452	15546
228.73586	15552
228.75719	15587
228.77853	15509
228.79987	15383
228.8212	15397
228.84253	15427
228.86388	15411
228.88521	15443
228.90654	15506
228.92787	15520
228.9492	15602
228.97054	15655
228.99188	15783
229.01321	15770
229.03455	15793
229.05588	15898
229.07721	15814
229.09854	15811
229.11987	15741
229.1412	15683
229.16254	15795
229.18387	15819
229.2052	15628
229.22653	15594
229.24786	15651
229.2692	15703
229.29053	15662
229.31186	15560
229.33319	15699
229.35452	15543
229.37585	15529
229.39719	15548
229.41852	15612
229.43985	15749
229.46117	15699
229.4825	15662
229.50383	15604
229.52516	15528
229.54649	15337
229.56783	15259
229.58914	15288
229.61047	15155
229.63181	15125
229.65314	15060
229.67445	14960
229.69579	14844
229.71712	14704
229.73843	14773
229.75977	14734
229.7811	14770
229.80241	14651
229.82375	14537
229.84508	14412
229.86639	14282
229.88773	14256
229.90906	14265
229.93037	14305
229.95171	14382
229.97302	14266
229.99435	14195
230.01567	14095
230.037	14071
230.05832	14032
230.07965	13888
230.10097	13834
230.1223	13746
230.14362	13618
230.16495	13576
230.18626	13512
230.20758	13529
230.22891	13409
230.25023	13209
230.27155	13137
230.29288	13086
230.31419	13069
230.33551	13041
230.35684	13077
230.37816	13022
230.39948	12934
230.42081	12951
230.44212	12991
230.46344	12928
230.48476	12777
230.50609	12819
230.5274	12769
230.54872	12699
230.57004	12595
230.59135	12548
230.61267	12587
230.634	12533
230.65532	12348
230.67664	12250
230.69795	12347
230.71927	12351
230.74059	12310
230.7619	12238
230.78322	12344
230.80453	12198
230.82585	12108
230.84717	11977
230.86848	11936
230.8898	11895
230.91112	11876
230.93243	11947
230.95375	11985
230.97507	11961
230.99638	11812
231.0177	11791
231.03902	11793
231.06033	11761
231.08163	11698
231.10295	11757
231.12427	11777
231.14558	11783
231.1669	11721
231.18822	11713
231.20952	11758
231.23083	11737
231.25215	11745
231.27347	11707
231.29477	11715
231.31609	11734
231.3374	11659
231.3587	11586
231.38002	11508
231.40134	11496
231.42264	11501
231.44395	11416
231.46527	11506
231.48657	11476
231.50789	11481
231.52919	11475
231.55051	11453
231.57182	11424
231.59312	11408
231.61444	11356
231.63574	11336
231.65706	11305
231.67836	11263
231.69968	11248
231.72098	11169
231.74228	11117
231.7636	11139
231.7849	11147
231.80621	11158
231.82751	11178
231.84883	11167
231.87013	11128
231.89143	11061
231.91275	11093
231.93405	11072
231.95535	11119
231.97667	11055
231.99797	11044
232.01927	10959
232.04057	10915
232.06189	10852
232.08319	10877
232.10449	10861
232.12579	10853
232.14709	10842
232.16841	10858
232.18971	10810
232.21101	10712
232.23232	10534
232.25362	10501
232.27492	10406
232.29622	10383
232.31752	10430
232.33884	10445
232.36014	10293
232.38144	10261
232.40274	10298
232.42404	10342
232.44534	10264
232.46664	10244
232.48795	10294
232.50925	10269
232.53055	10219
232.55185	10163
232.57314	10157
232.59444	10142
232.61574	10046
232.63704	10025
232.65834	10100
232.67964	10172
232.70094	10196
232.72224	10071
232.74353	10043
232.76483	10039
232.78613	10041
232.80743	10033
232.82872	10050
232.85002	10135
232.87132	10067
232.89262	10118
232.91391	10042
232.93521	10022
232.95651	9943
232.9778	9995
232.9991	9993
233.0204	9936
233.04169	9913
233.06299	9865
233.08429	9891
233.10558	9849
233.12688	9866
233.14816	9869
233.16946	9798
233.19075	9710
233.21205	9674
233.23334	9616
233.25464	9666
233.27592	9612
233.29723	9605
233.31851	9659
233.33981	9625
233.3611	9688
233.3824	9630
233.40369	9661
233.42497	9621
233.44627	9562
233.46756	9466
233.48885	9461
233.51015	9550
233.53143	9378
233.55272	9368
233.57402	9369
233.59531	9387
233.61659	9375
233.63788	9377
233.65918	9294
233.68047	9316
233.70175	9264
233.72304	9259
233.74432	9332
233.76563	9471
233.78691	9493
233.8082	9481
233.82948	9452
233.85077	9377
233.87206	9330
233.89334	9326
233.91463	9238
233.93591	9279
233.9572	9264
233.97849	9251
233.99977	9160
234.02106	9125
234.04234	9036
234.06363	8992
234.08492	9076
234.1062	9101
234.12749	9128
234.14877	9119
234.17006	9032
234.19135	8962
234.21263	8902
234.23392	8916
234.2552	8958
234.27647	9024
234.29776	9102
234.31905	9122
234.34033	9130
234.36162	9119
234.38289	9143
234.40417	9095
234.42546	9133
234.44675	9127
234.46802	9059
234.4893	9031
234.51059	8958
234.53186	8927
234.55315	8849
234.57443	8823
234.5957	8810
234.61699	8827
234.63828	8856
234.65955	8853
234.68083	8807
234.7021	8765
234.72339	8778
234.74466	8811
234.76595	8843
234.78722	8907
234.8085	8837
234.82977	8859
234.85106	8870
234.87233	8919
234.89362	8808
234.91489	8692
234.93616	8679
234.95744	8742
234.97871	8661
235	8654
235.02127	8602
235.04254	8693
235.06383	8727
235.0851	8782
235.10637	8775
235.12766	8699
235.14893	8759
235.1702	8695
235.19147	8691
235.21275	8687
235.23402	8675
235.25529	8668
235.27657	8685
235.29784	8686
235.31911	8612
235.34039	8589
235.36166	8548
235.38293	8541
235.40421	8517
235.42548	8551
235.44675	8488
235.46802	8482
235.48929	8474
235.51056	8417
235.53183	8486
235.5531	8489
235.57437	8408
235.59564	8456
235.61691	8433
235.63818	8406
235.65945	8339
235.68073	8392
235.702	8408
235.72327	8401
235.74454	8461
235.76581	8416
235.78706	8414
235.80833	8366
235.82961	8305
235.85088	8370
235.87215	8378
235.89342	8380
235.91467	8274
235.93594	8264
235.95721	8277
235.97849	8282
235.99974	8271
236.02101	8175
236.04228	8132
236.06354	8159
236.08481	8173
236.10608	8203
236.12733	8249
236.14861	8159
236.16986	8167
236.19113	8195
236.2124	8160
236.23366	8128
236.25493	8173
236.27618	8104
236.29745	8126
236.31871	8073
236.33998	8046
236.36124	8045
236.38251	8045
236.40376	8023
236.42503	7981
236.44629	7970
236.46754	7971
236.48882	7981
236.51007	7920
236.53134	7895
236.5526	7849
236.57385	7841
236.59512	7808
236.61638	7716
236.63763	7657
236.65889	7628
236.68016	7593
236.70142	7617
236.72267	7649
236.74393	7658
236.7652	7811
236.78645	7785
236.80771	7553
236.82896	7596
236.85022	7543
236.87148	7513
236.89275	7598
236.914	7579
236.93526	7598
236.95651	7507
236.97777	7570
236.99902	7562
237.02028	7618
237.04153	7584
237.06279	7571
237.08405	7554
237.1053	7486
237.12656	7404
237.14781	7409
237.16907	7465
237.19032	7485
237.21158	7458
237.23283	7454
237.25409	7455
237.27533	7509
237.29659	7462
237.31784	7438
237.3391	7434
237.36035	7440
237.38161	7429
237.40285	7469
237.4241	7473
237.44536	7478
237.46661	7445
237.48785	7438
237.50911	7422
237.53036	7318
237.55161	7326
237.57286	7296
237.59412	7349
237.61536	7374
237.63661	7339
237.65787	7351
237.67911	7341
237.70036	7308
237.7216	7281
237.74286	7324
237.7641	7337
237.78535	7259
237.80661	7251
237.82785	7208
237.84909	7229
237.87035	7227
237.89159	7249
237.91284	7231
237.93408	7241
237.95534	7236
237.97658	7194
237.99782	7165
238.01907	7144
238.04031	7101
238.06157	7072
238.08281	7075
238.10405	7143
238.12531	7143
238.14655	7117
238.16779	7080
238.18903	7104
238.21028	7076
238.23152	7089
238.25276	7069
238.274	7051
238.29524	7087
238.3165	7044
238.33774	6992
238.35898	6963
238.38022	6974
238.40146	6889
238.4227	6938
238.44394	7055
238.46518	7064
238.48642	7024
238.50766	6980
238.52892	6933
238.55016	6902
238.5714	6960
238.59264	6998
238.61386	7011
238.6351	7010
238.65634	7020
238.67758	6990
238.69882	7011
238.72006	6992
238.7413	6975
238.76254	6960
238.78378	6984
238.80502	6959
238.82625	6927
238.84749	6900
238.86873	6826
238.88997	6879
238.91121	6875
238.93243	6819
238.95367	6751
238.97491	6748
238.99614	6740
239.01738	6725
239.03862	6696
239.05986	6753
239.08109	6774
239.10233	6826
239.12355	6819
239.14479	6733
239.16603	6735
239.18726	6767
239.2085	6748
239.22972	6734
239.25096	6672
239.27219	6658
239.29343	6659
239.31465	6650
239.33589	6583
239.35712	6596
239.37836	6592
239.39958	6577
239.42082	6535
239.44205	6559
239.46329	6520
239.48451	6504
239.50574	6502
239.52698	6562
239.5482	6612
239.56943	6641
239.59067	6621
239.61189	6654
239.63312	6576
239.65434	6555
239.67558	6515
239.69681	6499
239.71803	6515
239.73926	6530
239.7605	6522
239.78172	6548
239.80295	6546
239.82417	6490
239.8454	6458
239.86662	6531
239.88785	6552
239.90907	6544
239.93031	6487
239.95154	6503
239.97276	6495
239.99399	6479
240.01521	6518
240.03644	6533
240.05766	6636
240.07889	6607
240.10011	6627
240.12134	6575
240.14255	6605
240.16377	6610
240.185	6525
240.20622	6551
240.22745	6525
240.24867	6485
240.2699	6435
240.29112	6449
240.31233	6432
240.33356	6386
240.35478	6338
240.37601	6317
240.39723	6397
240.41844	6375
240.43967	6409
240.46089	6384
240.4821	6385
240.50333	6348
240.52455	6408
240.54576	6408
240.56699	6411
240.58821	6462
240.60942	6415
240.63065	6416
240.65186	6382
240.67308	6379
240.69431	6315
240.71552	6327
240.73674	6317
240.75795	6234
240.77917	6260
240.80038	6280
240.82161	6283
240.84282	6271
240.86403	6296
240.88525	6376
240.90646	6274
240.92769	6263
240.9489	6207
240.97011	6158
240.99133	6177
241.01254	6182
241.03375	6206
241.05498	6244
241.07619	6213
241.0974	6168
241.11861	6149
241.13983	6138
241.16104	6195
241.18225	6190
241.20346	6157
241.22467	6178
241.2459	6136
241.26711	6127
241.28831	6146
241.30952	6160
241.33073	6171
241.35194	6117
241.37315	6149
241.39436	6178
241.41557	6141
241.4368	6118
241.45801	6118
241.47922	6101
241.50043	6156
241.52164	6166
241.54283	6120
241.56404	6146
241.58525	6147
241.60646	6158
241.62767	6132
241.64888	6138
241.67009	6139
241.6913	6125
241.71251	6156
241.7337	6120
241.75491	6163
241.77612	6099
241.79733	6084
241.81854	6064
241.83974	6018
241.86095	6072
241.88216	6107
241.90337	6107
241.92456	6082
241.94577	6100
241.96698	6044
241.98817	6046
242.00938	6052
242.03058	6058
242.05179	6012
242.073	6040
242.09419	6052
242.1154	6000
242.1366	6014
242.15781	5977
242.179	5978
242.20021	5973
242.22141	5969
242.24261	5968
242.26381	6025
242.28502	5990
242.30621	5957
242.32742	5964
242.34862	5921
242.36981	5879
242.39102	5842
242.41222	5778
242.43341	5738
242.45462	5752
242.47581	5753
242.49701	5825
242.51822	5810
242.53941	5805
242.56061	5723
242.5818	5736
242.60301	5710
242.62421	5726
242.6454	5794
242.6666	5817
242.68779	5851
242.70898	5717
242.73019	5743
242.75139	5793
242.77258	5795
242.79378	5766
242.81497	5806
242.83617	5790
242.85736	5757
242.87856	5713
242.89975	5712
242.92094	5668
242.94214	5649
242.96333	5628
242.98453	5674
243.00572	5714
243.02692	5683
243.04811	5798
243.06931	5665
243.09048	5683
243.11168	5690
243.13287	5724
243.15407	5704
243.17526	5711
243.19646	5786
243.21764	5737
243.23883	5674
243.26003	5664
243.28122	5659
243.3024	5656
243.32359	5636
243.34479	5576
243.36597	5618
243.38716	5590
243.40836	5563
243.42953	5549
243.45073	5540
243.47192	5544
243.4931	5617
243.5143	5546
243.53548	5507
243.55667	5508
243.57785	5462
243.59904	5482
243.62022	5443
243.64142	5505
243.6626	5474
243.68379	5532
243.70497	5479
243.72617	5439
243.74734	5441
243.76852	5377
243.78972	5355
243.8109	5388
243.83209	5342
243.85327	5306
243.87445	5330
243.89565	5347
243.91682	5320
243.938	5363
243.95918	5284
243.98038	5326
244.00156	5308
244.02274	5264
244.04391	5261
244.06509	5283
244.08629	5203
244.10747	5212
244.12865	5215
244.14983	5180
244.17101	5151
244.19218	5194
244.21336	5279
244.23454	5244
244.25572	5227
244.2769	5148
244.29808	5143
244.31926	5180
244.34044	5184
244.36162	5210
244.3828	5230
244.40398	5217
244.42516	5191
244.44633	5264
244.46751	5265
244.48869	5206
244.50987	5232
244.53105	5159
244.55222	5146
244.57339	5169
244.59457	5190
244.61575	5155
244.63693	5129
244.6581	5130
244.67928	5126
244.70045	5120
244.72162	5066
244.7428	5003
244.76398	5022
244.78514	5031
244.80632	5018
244.8275	5005
244.84866	5072
244.86984	5108
244.89102	5082
244.91219	5053
244.93336	5059
244.95453	5071
244.97571	5055
244.99687	5032
245.01805	5013
245.03922	5020
245.06039	5001
245.08156	4982
245.10274	4948
245.1239	4932
245.14507	4970
245.16624	4929
245.18741	4954
245.20859	4912
245.22975	4927
245.25092	4901
245.27209	4891
245.29326	4899
245.31442	4941
245.33559	4944
245.35677	4960
245.37793	4899
245.39909	4962
245.42026	4912
245.44142	4876
245.4626	4925
245.48376	4878
245.50493	4886
245.52609	4909
245.54726	4884
245.56842	4854
245.58958	4847
245.61075	4866
245.63191	4877
245.65308	4930
245.67426	4877
245.69542	4889
245.71657	4849
245.73773	4851
245.7589	4853
245.78006	4867
245.80122	4873
245.82239	4919
245.84355	4924
245.86472	4912
245.88588	4914
245.90704	4966
245.92821	4903
245.94936	4910
245.97052	4903
245.99168	4888
246.01285	4876
246.034	4880
246.05516	4859
246.07632	4862
246.09749	4826
246.11864	4750
246.1398	4738
246.16096	4769
246.18211	4871
246.20328	4836
246.22444	4822
246.24559	4800
246.26675	4793
246.2879	4824
246.30907	4846
246.33022	4862
246.35138	4851
246.37254	4839
246.39369	4828
246.41484	4838
246.436	4832
246.45715	4829
246.47832	4819
246.49947	4818
246.52063	4794
246.54178	4757
246.56293	4775
246.58409	4777
246.60524	4758
246.62639	4749
246.64755	4792
246.6687	4770
246.68985	4730
246.71101	4686
246.73216	4704
246.75331	4693
246.77446	4697
246.79561	4692
246.81677	4718
246.83792	4697
246.85907	4730
246.88022	4694
246.90137	4718
246.92252	4681
246.94366	4725
246.96481	4743
246.98598	4727
247.00713	4736
247.02827	4711
247.04942	4704
247.07057	4752
247.09172	4742
247.11287	4781
247.13402	4752
247.15515	4737
247.1763	4696
247.19745	4738
247.2186	4722
247.23975	4747
247.26089	4771
247.28204	4746
247.30319	4721
247.32433	4782
247.34547	4761
247.36662	4771
247.38777	4831
247.40891	4772
247.43005	4794
247.4512	4760
247.47235	4767
247.49348	4773
247.51463	4801
247.53578	4781
247.55692	4728
247.57806	4696
247.59921	4714
247.62035	4683
247.64149	4723
247.66263	4673
247.68378	4702
247.70491	4682
247.72606	4688
247.74719	4706
247.76834	4717
247.78947	4691
247.81062	4687
247.83176	4641
247.85291	4604
247.87404	4625
247.89517	4609
247.91632	4549
247.93745	4527
247.95859	4511
247.97974	4567
248.00087	4589
248.022	4542
248.04315	4560
248.06429	4543
248.08542	4522
248.10655	4538
248.1277	4463
248.14883	4412
248.16997	4409
248.1911	4416
248.21223	4395
248.23337	4406
248.25452	4415
248.27565	4408
248.29678	4392
248.31792	4385
248.33905	4391
248.36018	4365
248.38132	4364
248.40245	4376
248.42358	4391
248.44472	4375
248.46585	4389
248.48698	4358
248.50812	4368
248.52925	4344
248.55038	4388
248.5715	4381
248.59264	4409
248.61377	4381
248.6349	4322
248.65604	4313
248.67717	4228
248.69829	4244
248.71942	4245
248.74055	4269
248.76169	4310
248.78281	4326
248.80394	4264
248.82507	4243
248.84619	4237
248.86732	4272
248.88846	4268
248.90958	4272
248.93071	4279
248.95184	4264
248.97296	4262
248.99409	4256
249.01521	4227
249.03635	4239
249.05746	4219
249.0786	4214
249.09972	4208
249.12085	4191
249.14197	4206
249.1631	4212
249.18422	4181
249.20535	4255
249.22647	4313
249.24759	4179
249.26872	4214
249.28984	4119
249.31096	4127
249.33209	4151
249.35321	4168
249.37433	4165
249.39546	4140
249.41658	4156
249.4377	4173
249.45882	4198
249.47993	4158
249.50107	4167
249.52219	4146
249.5433	4084
249.56442	4138
249.58554	4111
249.60666	4130
249.62778	4135
249.6489	4130
249.67003	4120
249.69115	4086
249.71227	4179
249.73338	4085
249.7545	4090
249.77562	4069
249.79674	4062
249.81784	4115
249.83896	4107
249.86008	4076
249.8812	4015
249.90231	4006
249.92343	4026
249.94455	4015
249.96567	4017
249.98677	4023
250.00789	4030
250.02901	3996
250.05013	3979
250.07124	4016
250.09235	4039
250.11346	4043
250.13458	4036
250.15569	4049
250.1768	4024
250.19792	4012
250.21902	4050
250.24014	4030
250.26126	4022
250.28236	4033
250.30348	4040
250.32458	4010
250.3457	4037
250.36681	3997
250.38792	3993
250.40903	3978
250.43015	3966
250.45125	3953
250.47237	3942
250.49347	3923
250.51459	4000
250.53569	3921
250.55679	3942
250.57791	3954
250.59901	3964
250.62013	4012
250.64124	3980
250.66234	3945
250.68344	3938
250.70456	3944
250.72566	3923
250.74677	3913
250.76787	3907
250.78899	3923
250.81009	3923
250.83119	3869
250.85229	3854
250.8734	3878
250.8945	3845
250.91562	3838
250.93672	3820
250.95782	3819
250.97893	3808
251.00003	3792
251.02113	3809
251.04224	3788
251.06334	3812
251.08444	3812
251.10555	3816
251.12665	3792
251.14775	3770
251.16885	3780
251.18994	3757
251.21104	3790
251.23215	3772
251.25325	3744
251.27435	3749
251.29546	3736
251.31656	3710
251.33765	3694
251.35875	3716
251.37985	3725
251.40096	3711
251.42204	3745
251.44315	3741
251.46425	3733
251.48534	3692
251.50644	3713
251.52754	3685
251.54863	3737
251.56973	3732
251.59082	3771
251.61192	3732
251.63303	3758
251.65411	3753
251.67522	3759
251.6963	3739
251.71741	3742
251.73849	3719
251.7596	3715
251.78069	3736
251.80177	3694
251.82288	3711
251.84396	3730
251.86507	3690
251.88615	3637
251.90724	3682
251.92834	3686
251.94943	3693
251.97052	3718
251.99162	3749
252.01271	3680
252.0338	3710
252.05489	3707
252.07599	3701
252.09708	3685
252.11816	3687
252.13925	3688
252.16034	3710
252.18143	3710
252.20253	3680
252.22362	3698
252.24471	3727
252.26579	3695
252.28688	3677
252.30797	3711
252.32906	3677
252.35014	3706
252.37123	3675
252.39232	3713
252.41341	3673
252.43449	3648
252.45558	3644
252.47667	3603
252.49774	3651
252.51883	3605
252.53992	3646
252.561	3630
252.58209	3658
252.60318	3655
252.62425	3627
252.64534	3622
252.66643	3620
252.68752	3621
252.70859	3640
252.72968	3670
252.75076	3645
252.77185	3636
252.79292	3588
252.81401	3610
252.83508	3615
252.85617	3608
252.87726	3601
252.89833	3640
252.91942	3587
252.94049	3581
252.96158	3555
252.98265	3617
253.00374	3579
253.02481	3552
253.0459	3598
253.06697	3604
253.08806	3626
253.10913	3604
253.13022	3701
253.15129	3580
253.17236	3570
253.19345	3568
253.21452	3582
253.2356	3602
253.25668	3614
253.27776	3603
253.29883	3605
253.3199	3580
253.34099	3619
253.36206	3559
253.38313	3577
253.40421	3629
253.42528	3572
253.44637	3551
253.46744	3584
253.48851	3543
253.50958	3574
253.53065	3530
253.55173	3542
253.5728	3548
253.59387	3525
253.61494	3561
253.63602	3482
253.65709	3490
253.67816	3501
253.69923	3527
253.72031	3546
253.74138	3561
253.76245	3562
253.78352	3548
253.8046	3507
253.82565	3483
253.84673	3478
253.8678	3508
253.88887	3458
253.90994	3449
253.931	3427
253.95207	3389
253.97314	3452
253.99422	3465
254.01527	3478
254.03635	3452
254.05742	3434
254.07848	3439
254.09955	3455
254.12062	3449
254.14168	3457
254.16275	3524
254.18381	3507
254.20488	3510
254.22594	3473
254.24701	3505
254.26807	3524
254.28914	3513
254.3102	3529
254.33127	3477
254.35233	3486
254.3734	3471
254.39445	3488
254.41551	3393
254.43658	3513
254.45764	3489
254.47871	3572
254.49977	3585
254.52083	3522
254.54189	3496
254.56296	3498
254.58401	3501
254.60507	3513
254.62613	3509
254.6472	3519
254.66826	3532
254.68932	3540
254.71037	3542
254.73143	3538
254.75249	3534
254.77356	3559
254.79462	3505
254.81567	3511
254.83673	3489
254.85779	3482
254.87885	3485
254.8999	3501
254.92096	3513
254.94202	3530
254.96307	3478
254.98413	3467
255.00519	3514
255.02623	3553
255.04729	3486
255.06834	3453
255.0894	3486
255.11046	3537
255.13152	3525
255.15256	3550
255.17361	3512
255.19467	3540
255.21573	3517
255.23679	3513
255.25783	3525
255.27888	3529
255.29994	3475
255.32098	3512
255.34204	3510
255.3631	3480
255.38414	3483
255.4052	3502
255.42624	3499
255.4473	3516
255.46834	3512
255.4894	3477
255.51045	3494
255.53149	3484
255.55255	3498
255.57359	3479
255.59464	3491
255.61569	3476
255.63673	3473
255.65779	3482
255.67883	3464
255.69987	3488
255.72093	3499
255.74197	3509
255.76302	3472
255.78407	3448
255.80511	3503
255.82616	3468
255.84721	3478
255.86826	3473
255.8893	3446
255.91034	3498
255.93138	3489
255.95242	3490
255.97348	3487
255.99452	3462
256.01556	3506
256.03659	3522
256.05765	3496
256.0787	3486
256.09973	3490
256.12079	3491
256.14182	3484
256.16287	3527
256.1839	3485
256.20496	3461
256.22598	3488
256.24701	3466
256.26807	3491
256.28909	3473
256.31015	3480
256.33118	3490
256.35223	3507
256.37326	3497
256.39429	3482
256.41534	3471
256.43637	3500
256.45743	3483
256.47845	3493
256.49948	3506
256.52054	3500
256.54156	3521
256.56259	3522
256.58365	3532
256.60468	3529
256.6257	3503
256.64676	3494
256.66779	3493
